wavenumber,intensity
405.4,262.8600
406.7,166.1100
407.9,157.0400
409.2,229.6600
410.5,432.6400
411.7,678.3700
413.0,1054.0400
414.3,1173.9900
415.5,955.4800
416.8,616.9200
418.0,290.3700
419.3,81.3100
420.6,40.6100
421.8,0.0000
423.1,0.0000
424.3,0.0000
425.6,0.0000
426.9,0.0000
428.1,0.0000
429.4,0.0000
430.6,0.0000
431.9,8.1700
433.1,0.0000
434.4,0.0000
435.7,0.0000
436.9,6.3400
438.2,17.7100
439.4,36.0300
440.7,10.7100
442.0,11.2400
443.2,36.3200
444.5,45.6100
445.7,87.0300
447.0,57.2300
448.2,116.8500
449.5,161.9400
450.8,246.5700
452.0,373.8000
453.3,478.9100
454.5,638.4500
455.8,772.7200
457.0,840.4000
458.3,901.1100
459.5,904.8100
460.8,1105.4800
462.0,1432.7300
463.3,1855.0900
464.6,2463.5000
465.8,2958.8600
467.1,3158.8100
468.3,3146.7400
469.6,2679.7200
470.8,2137.4200
472.1,1632.5100
473.3,1239.4500
474.6,960.5200
475.8,782.4500
477.1,651.1200
478.3,531.1200
479.6,436.6600
480.8,376.3600
482.1,376.1400
483.3,305.4700
484.6,287.3900
485.8,287.8500
487.1,243.2900
488.3,241.9500
489.6,254.1600
490.8,248.5100
492.1,236.7200
493.3,204.0500
494.6,191.0800
495.8,214.9900
497.1,264.6500
498.3,341.2400
499.6,392.6100
500.8,524.7900
502.0,956.8200
503.3,1704.6600
504.5,2866.1800
505.8,3715.2200
507.0,3660.5500
508.3,2665.3500
509.5,1561.5800
510.8,796.2900
512.0,469.9900
513.2,331.6300
514.5,198.3100
515.7,121.7200
517.0,177.1200
518.2,155.9200
519.5,149.3200
520.7,148.2000
522.0,124.0400
523.2,111.4300
524.4,67.3400
525.7,57.8200
526.9,14.4300
528.2,47.4000
529.4,2.3900
530.6,20.3600
531.9,0.0000
533.1,5.5400
534.4,0.0000
535.6,0.0000
536.9,15.4800
538.1,4.4300
539.3,0.0000
540.6,20.2100
541.8,14.9500
543.1,4.9000
544.3,0.0000
545.5,18.3000
546.8,10.5500
548.0,0.0000
549.2,0.0000
550.5,3.3000
551.7,24.0200
553.0,0.0000
554.2,11.6600
555.4,21.6200
556.7,0.0000
557.9,0.0000
559.1,23.5800
560.4,11.9700
561.6,0.3700
562.9,2.4900
564.1,0.0000
565.3,16.0900
566.6,4.3900
567.8,42.5800
569.0,25.5300
570.3,41.7200
571.5,8.0900
572.7,0.0000
574.0,0.0000
575.2,17.5300
576.4,0.0000
577.7,26.5600
578.9,0.0000
580.1,0.0000
581.4,0.0000
582.6,20.1300
583.8,26.4800
585.1,4.5400
586.3,22.3000
587.5,17.6000
588.8,49.0900
590.0,84.6600
591.2,58.4800
592.4,82.2500
593.7,94.8300
594.9,180.1500
596.1,215.5300
597.4,252.6300
598.6,308.4300
599.8,447.3200
601.0,607.7200
602.3,854.5200
603.5,1239.0500
604.7,1670.5200
606.0,1918.7300
607.2,1950.7000
608.4,1717.7300
609.6,1290.2100
610.9,946.4600
612.1,639.7600
613.3,474.8600
614.5,347.3800
615.8,257.2400
617.0,189.2900
618.2,186.4900
619.4,245.2600
620.7,363.7700
621.9,471.1300
623.1,690.9200
624.3,1037.4500
625.6,1486.8000
626.8,2048.0700
628.0,2645.8600
629.2,2930.6000
630.5,2971.5800
631.7,2556.4000
632.9,1934.7500
634.1,1484.6400
635.3,1145.2200
636.6,762.8400
637.8,648.4100
639.0,580.7900
640.2,528.7800
641.4,526.3400
642.7,574.5700
643.9,730.9200
645.1,975.6900
646.3,1324.2900
647.5,1965.0400
648.8,3054.3400
650.0,4976.2200
651.2,7451.2400
652.4,9740.5000
653.6,10753.2400
654.9,9896.9400
656.1,7694.7700
657.3,5335.4200
658.5,3579.0600
659.7,2386.5700
660.9,1572.5100
662.1,1040.9200
663.4,749.7300
664.6,501.6300
665.8,431.8100
667.0,332.3900
668.2,278.1100
669.4,219.8800
670.7,252.8600
671.9,215.7600
673.1,184.3800
674.3,235.7900
675.5,275.7800
676.7,278.2200
677.9,358.5300
679.1,325.1500
680.4,414.4600
681.6,546.8500
682.8,577.0000
684.0,655.9100
685.2,717.1800
686.4,770.4700
687.6,813.5300
688.9,853.1700
690.1,822.0300
691.3,888.7900
692.5,794.9000
693.7,828.2800
694.9,725.4600
696.1,761.1100
697.3,713.1800
698.5,688.9900
699.7,633.2400
700.9,607.4200
702.1,613.2000
703.4,662.9400
704.6,696.8700
705.8,785.4000
707.0,986.4400
708.2,1235.1500
709.4,1703.0300
710.6,2589.9800
711.8,3604.9600
713.0,4071.4300
714.2,3713.7100
715.4,2734.8400
716.6,1977.2500
717.8,1405.9000
719.0,1041.9100
720.2,797.0200
721.4,633.0000
722.6,625.9500
723.8,570.7500
725.0,564.8500
726.2,582.4600
727.5,641.4600
728.7,634.4400
729.9,655.3800
731.1,698.1000
732.3,710.0700
733.5,675.1400
734.7,722.2900
735.9,709.7100
737.1,679.8600
738.3,606.5500
739.5,614.6600
740.7,575.4200
741.9,563.5000
743.1,509.8300
744.3,485.1500
745.5,438.2400
746.7,393.5900
747.9,341.1900
749.0,299.3900
750.2,287.0700
751.5,225.8800
752.6,139.7600
753.8,127.5200
755.0,92.5400
756.2,61.4700
757.4,37.0900
758.6,61.7000
759.8,44.1800
761.0,7.2900
762.2,0.0000
763.4,11.7900
764.6,0.0000
765.8,1.8900
767.0,0.0000
768.2,0.0000
769.4,0.0000
770.6,0.0000
771.8,0.0000
773.0,0.0000
774.1,2.4100
775.3,18.0600
776.5,32.4200
777.7,29.6800
778.9,46.6600
780.1,111.8200
781.3,147.7200
782.5,206.2000
783.7,258.0400
784.9,350.0500
786.0,449.7200
787.2,595.0200
788.4,787.5500
789.6,1124.6400
790.8,1519.8200
792.0,2159.9600
793.2,3104.7500
794.4,4613.8100
795.6,6572.9800
796.8,8858.3500
797.9,11057.4000
799.1,12097.2900
800.3,11918.6300
801.5,10556.9600
802.7,8691.5500
803.9,6846.8900
805.0,5349.5900
806.2,4178.0200
807.4,3319.8500
808.6,2623.1500
809.8,2091.6100
811.0,1697.1900
812.2,1438.1400
813.3,1251.9900
814.5,1084.5400
815.7,992.0900
816.9,957.6400
818.1,1028.6900
819.2,1071.3000
820.4,1213.8600
821.6,1422.9800
822.8,1550.1100
824.0,1778.1700
825.2,1859.8700
826.3,1874.4300
827.5,1887.3500
828.7,1883.9100
829.9,1888.1100
831.1,1984.9800
832.2,2124.8700
833.4,2674.4300
834.6,3437.2800
835.8,4001.5700
837.0,4112.0500
838.1,3628.5900
839.3,2937.9900
840.5,2296.6800
841.7,1840.0700
842.8,1526.7100
844.0,1386.4100
845.2,1354.9100
846.4,1394.0900
847.5,1606.6100
848.7,1846.7600
849.9,2221.5400
851.1,2849.7900
852.2,3750.3700
853.4,5059.3800
854.6,7009.4200
855.8,9859.5200
856.9,13897.2400
858.1,18370.0700
859.3,21603.5600
860.5,21924.0400
861.6,19619.4200
862.8,15864.1500
864.0,12290.7800
865.1,9183.6700
866.3,6761.3800
867.5,4911.9600
868.6,3544.1100
869.8,2581.7400
871.0,1906.1000
872.2,1417.9800
873.3,1073.9700
874.5,821.5300
875.7,636.2600
876.8,485.1300
878.0,411.3900
879.2,300.3700
880.3,191.0200
881.5,155.7500
882.7,135.6300
883.8,86.8800
885.0,36.0100
886.2,63.7300
887.3,12.0500
888.5,0.0000
889.7,4.2700
890.8,0.0000
892.0,0.0000
893.2,3.9800
894.3,0.0000
895.5,0.0000
896.7,0.0000
897.8,0.0000
899.0,0.1900
900.1,0.0000
901.3,4.5600
902.5,0.0000
903.6,13.8100
904.8,27.0500
906.0,22.5000
907.1,37.3500
908.3,19.3400
909.4,22.8900
910.6,16.2000
911.8,63.3700
912.9,78.2300
914.1,68.8600
915.2,84.2500
916.4,95.8800
917.6,68.2200
918.7,68.5600
919.9,29.6200
921.0,36.9600
922.2,0.0000
923.4,10.1000
924.5,13.5600
925.7,0.0000
926.8,0.0000
928.0,36.9000
929.1,52.7500
930.3,54.6200
931.4,76.3800
932.6,43.3200
933.8,39.2900
934.9,17.5400
936.1,17.2800
937.2,0.0000
938.4,1.2500
939.5,0.0000
940.7,0.0000
941.8,0.0000
943.0,27.1300
944.1,19.9000
945.3,44.3600
946.4,69.3500
947.6,142.6500
948.7,277.6800
949.9,376.7200
951.0,410.2800
952.2,357.4400
953.3,297.6300
954.5,205.1000
955.6,158.1900
956.8,108.0700
957.9,111.0700
959.1,94.2300
960.2,176.6300
961.4,224.1600
962.5,345.7000
963.7,451.6800
964.8,667.5900
966.0,1068.5000
967.1,1648.4800
968.3,2375.8600
969.4,3208.8200
970.5,3762.3500
971.7,3740.5700
972.8,3226.6300
974.0,2566.9200
975.1,1902.4500
976.3,1413.8600
977.4,996.0800
978.6,693.0300
979.7,495.6000
980.9,351.2500
982.0,297.4900
983.1,244.8100
984.3,183.0300
985.4,167.8800
986.6,149.5100
987.7,136.5100
988.8,132.6200
990.0,128.2000
991.1,205.7800
992.3,149.3800
993.4,146.0400
994.5,166.2800
995.7,240.6500
996.8,218.5600
998.0,263.4600
999.1,287.4600
1000.2,264.8500
1001.4,327.4300
1002.5,361.6300
1003.6,417.2500
1004.8,461.1000
1005.9,540.8400
1007.0,673.1100
1008.2,688.5600
1009.3,805.3000
1010.5,879.7000
1011.6,905.8900
1012.7,933.6900
1013.9,983.4600
1015.0,1120.0600
1016.1,1270.0500
1017.3,1357.3600
1018.4,1465.5800
1019.5,1472.5100
1020.7,1424.7900
1021.8,1276.3200
1022.9,1132.6700
1024.1,988.4800
1025.2,870.0100
1026.3,755.2900
1027.5,635.7400
1028.6,551.0400
1029.7,510.2800
1030.8,464.7000
1032.0,481.3100
1033.1,447.5300
1034.2,458.2400
1035.4,485.5900
1036.5,539.2100
1037.6,554.7600
1038.7,548.8800
1039.9,462.0200
1041.0,459.8900
1042.1,365.5200
1043.2,336.5700
1044.4,360.7300
1045.5,317.8400
1046.6,330.2000
1047.8,278.7300
1048.9,264.2700
1050.0,251.9600
1051.1,203.1700
1052.2,168.8600
1053.4,118.9800
1054.5,143.7000
1055.6,80.9400
1056.8,72.9300
1057.9,44.5100
1059.0,69.2400
1060.1,22.0400
1061.2,45.1700
1062.4,14.0700
1063.5,14.8200
1064.6,22.5600
1065.7,43.1900
1066.8,0.0000
1068.0,2.1900
1069.1,0.0000
1070.2,0.0000
1071.3,0.0000
1072.4,32.8000
1073.6,24.1200
1074.7,2.5500
1075.8,4.2200
1076.9,7.5100
1078.0,0.0000
1079.2,7.1700
1080.3,0.0000
1081.4,0.0000
1082.5,0.0000
1083.6,7.5900
1084.7,18.6400
1085.8,10.8500
1087.0,55.2700
1088.1,13.5900
1089.2,28.9600
1090.3,8.2700
1091.4,37.1000
1092.5,33.1100
1093.6,61.9600
1094.8,71.4300
1095.9,154.7100
1097.0,167.4400
1098.1,229.2000
1099.2,390.1300
1100.3,577.5200
1101.4,815.6200
1102.5,1226.8400
1103.6,1679.1500
1104.8,2035.0700
1105.9,2277.3000
1107.0,2383.1500
1108.1,2356.3300
1109.2,2235.6300
1110.3,1941.1500
1111.4,1601.7900
1112.5,1204.0400
1113.6,859.0900
1114.7,638.2100
1115.8,460.4800
1116.9,374.5100
1118.0,243.6800
1119.2,241.9400
1120.3,228.3100
1121.4,196.8500
1122.5,262.1400
1123.6,302.0400
1124.7,356.0200
1125.8,397.5800
1126.9,360.7300
1128.0,339.5600
1129.1,286.4700
1130.2,225.7800
1131.3,133.6800
1132.4,113.0100
1133.5,56.6000
1134.6,42.9500
1135.7,37.4400
1136.8,15.6600
1137.9,14.4800
1139.0,0.0000
1140.1,0.0000
1141.2,0.0000
1142.3,14.1900
1143.4,0.0000
1144.5,0.0000
1145.6,32.8800
1146.7,0.0000
1147.8,0.0000
1148.9,28.2900
1150.0,10.7600
1151.1,50.2600
1152.2,22.4100
1153.3,55.4200
1154.4,55.2900
1155.5,69.3100
1156.6,80.6200
1157.7,130.0000
1158.8,165.8200
1159.9,240.2900
1161.0,344.1800
1162.1,484.5900
1163.2,690.4000
1164.2,1075.4600
1165.3,1748.8200
1166.4,3090.9400
1167.5,5686.4100
1168.6,9896.9100
1169.7,13813.8800
1170.8,14779.4600
1171.9,12387.4500
1173.0,8759.8000
1174.1,5535.8900
1175.2,3327.8200
1176.2,1882.4600
1177.3,1109.7000
1178.4,662.6600
1179.5,409.3400
1180.6,232.4100
1181.7,136.3000
1182.8,104.1200
1183.9,33.0900
1185.0,67.6100
1186.0,38.6900
1187.1,2.1000
1188.2,37.8600
1189.3,25.4700
1190.4,2.6600
1191.5,4.6500
1192.6,13.9900
1193.7,8.7000
1194.7,3.8600
1195.8,0.0000
1196.9,0.0000
1198.0,0.0000
1199.1,0.0000
1200.2,0.0000
1201.2,0.0000
1202.3,5.4400
1203.4,0.0000
1204.5,12.4600
1205.6,38.9600
1206.7,115.4300
1207.7,227.6900
1208.8,288.8400
1209.9,386.9100
1211.0,531.2900
1212.1,695.5900
1213.1,842.3700
1214.2,1018.9900
1215.3,1237.6300
1216.4,1437.6500
1217.5,1686.3400
1218.5,1863.4600
1219.6,2165.4300
1220.7,2397.4800
1221.8,2649.0000
1222.8,2942.6800
1223.9,3226.6000
1225.0,3464.2700
1226.1,3769.5600
1227.1,3952.2800
1228.2,4247.4300
1229.3,4483.5600
1230.4,4749.2000
1231.4,5242.6000
1232.5,5983.9400
1233.6,7140.2200
1234.7,8858.7500
1235.7,11177.7600
1236.8,14111.7200
1237.9,16638.7200
1239.0,17829.8700
1240.0,17468.4600
1241.1,15537.4000
1242.2,13089.5400
1243.2,10291.0900
1244.3,7842.1300
1245.4,5801.9500
1246.5,4367.3200
1247.5,3262.8400
1248.6,2749.9100
1249.7,2332.4300
1250.7,2190.4100
1251.8,2207.6700
1252.9,2371.5700
1253.9,2600.2800
1255.0,2999.8500
1256.1,3620.6900
1257.1,4358.0900
1258.2,5022.8800
1259.3,5365.8400
1260.3,5087.1000
1261.4,4356.4900
1262.5,3340.7300
1263.5,2399.2100
1264.6,1652.3400
1265.7,1146.7700
1266.7,845.8100
1267.8,725.6100
1268.8,725.2500
1269.9,792.1900
1271.0,1114.9400
1272.0,1492.3600
1273.1,2064.8400
1274.2,2908.4100
1275.2,3882.9400
1276.3,5113.3300
1277.3,6332.3100
1278.4,7408.8400
1279.5,8477.7800
1280.5,8886.8600
1281.6,8541.3000
1282.6,7349.5400
1283.7,5879.1100
1284.8,4177.5600
1285.8,2889.7200
1286.9,1974.3000
1287.9,1338.0800
1289.0,917.5900
1290.0,637.9700
1291.1,395.9900
1292.2,227.3000
1293.2,154.6200
1294.3,53.0400
1295.3,0.0000
1296.4,0.0000
1297.4,0.0000
1298.5,0.0000
1299.5,28.4900
1300.6,0.0000
1301.7,56.9500
1302.7,85.7300
1303.8,110.3700
1304.8,148.5500
1305.9,179.3700
1306.9,198.2900
1308.0,247.9400
1309.0,321.5300
1310.1,476.5800
1311.1,636.3300
1312.2,868.0000
1313.2,1142.6200
1314.3,1490.4700
1315.3,1965.2700
1316.4,2663.0600
1317.4,3604.6900
1318.5,4794.4900
1319.5,6506.5100
1320.6,8687.7200
1321.6,11599.5600
1322.7,14824.7100
1323.7,17973.7600
1324.7,20248.2200
1325.8,21296.2600
1326.8,21029.6800
1327.9,19772.4300
1328.9,17798.0100
1330.0,15878.0700
1331.0,13886.9100
1332.1,12117.4600
1333.1,10547.5800
1334.2,8940.0400
1335.2,7308.6000
1336.2,5753.3500
1337.3,4572.7300
1338.3,3719.4200
1339.4,3054.9600
1340.4,2557.1200
1341.4,2253.2500
1342.5,1935.8300
1343.5,1692.6000
1344.6,1467.6400
1345.6,1312.9900
1346.7,1172.0800
1347.7,1125.3500
1348.7,993.4800
1349.8,917.6700
1350.8,940.2900
1351.8,935.1000
1352.9,949.6400
1353.9,984.5100
1355.0,1067.5900
1356.0,1180.9700
1357.0,1297.3700
1358.1,1540.6400
1359.1,1764.3800
1360.1,2028.5000
1361.2,2354.6200
1362.2,2672.9000
1363.2,3063.2100
1364.3,3513.9800
1365.3,4039.3100
1366.3,4641.0800
1367.4,5365.5300
1368.4,6290.5800
1369.4,7186.7600
1370.5,8183.3100
1371.5,9076.7200
1372.5,9564.0800
1373.6,9853.9400
1374.6,9665.7900
1375.6,9063.9900
1376.7,8299.6300
1377.7,7292.0100
1378.7,6234.5900
1379.8,5345.9200
1380.8,4468.6700
1381.8,3871.1400
1382.8,3132.8800
1383.9,2683.6100
1384.9,2247.4100
1385.9,1935.7500
1387.0,1540.5800
1388.0,1387.5700
1389.0,1124.5500
1390.0,980.6100
1391.0,829.4200
1392.1,683.3900
1393.1,540.1600
1394.1,436.4500
1395.2,359.8800
1396.2,266.0400
1397.2,152.5200
1398.2,162.3200
1399.2,97.3100
1400.3,64.4500
1401.3,81.7800
1402.3,25.9700
1403.3,7.7200
1404.4,14.2600
1405.4,0.0000
1406.4,0.0000
1407.4,0.0000
1408.4,6.8200
1409.5,6.5400
1410.5,0.0000
1411.5,4.5700
1412.5,0.0000
1413.5,1.9500
1414.6,0.0000
1415.6,52.4800
1416.6,18.0700
1417.6,67.0000
1418.6,63.1500
1419.7,158.3900
1420.7,152.1800
1421.7,229.5300
1422.7,310.5800
1423.7,359.2100
1424.7,444.0300
1425.7,469.8900
1426.8,518.6800
1427.8,575.3700
1428.8,585.6400
1429.8,673.8400
1430.8,697.4600
1431.8,743.4900
1432.8,799.2500
1433.8,801.1800
1434.9,882.4700
1435.9,942.6400
1436.9,962.8400
1437.9,1046.1900
1438.9,1104.7300
1439.9,1187.6500
1440.9,1231.7400
1441.9,1294.7500
1443.0,1346.8700
1444.0,1419.1500
1445.0,1513.4600
1446.0,1573.1200
1447.0,1638.3300
1448.0,1697.5200
1449.0,1628.4500
1450.0,1540.3300
1451.0,1395.8100
1452.0,1332.5200
1453.0,1214.6400
1454.0,1050.0100
1455.0,982.0800
1456.0,840.4100
1457.0,757.5100
1458.0,637.6300
1459.0,553.2600
1460.1,474.9300
1461.1,444.5200
1462.1,378.3200
1463.1,339.7800
1464.1,264.1700
1465.1,206.3600
1466.1,228.7600
1467.1,190.0000
1468.1,135.1000
1469.1,143.8600
1470.1,147.6800
1471.1,108.1200
1472.1,105.7000
1473.1,116.3000
1474.1,82.2100
1475.1,69.8100
1476.1,89.0900
1477.1,79.1500
1478.1,18.1400
1479.1,38.0300
1480.1,35.5000
1481.1,0.0000
1482.1,11.5300
1483.1,0.0000
1484.1,0.0000
1485.0,0.0000
1486.0,0.0000
1487.0,13.9000
1488.0,0.0000
1489.0,0.0000
1490.0,0.0000
1491.0,0.0000
1492.0,1.9500
1493.0,0.0000
1494.0,0.0000
1495.0,1.0700
1496.0,0.0000
1497.0,0.0000
1498.0,99.3200
1499.0,83.7900
1500.0,89.1000
1500.9,209.5200
1501.9,247.2100
1502.9,374.2600
1503.9,524.9300
1504.9,711.9700
1505.9,965.9000
1506.9,1371.9600
1507.9,1585.4300
1508.8,1597.6400
1509.8,1470.5400
1510.8,1110.2100
1511.8,949.4700
1512.8,870.7700
1513.8,1001.9000
1514.8,1377.8100
1515.8,1768.9500
1516.7,2108.2300
1517.7,2069.8100
1518.7,1925.0400
1519.7,1467.3400
1520.7,1052.6000
1521.7,691.1800
1522.7,451.2800
1523.6,324.1600
1524.6,216.1600
1525.6,168.5100
1526.6,93.1100
1527.6,18.9000
1528.5,33.6000
1529.5,0.0000
1530.5,18.3200
1531.5,22.5200
1532.5,0.0000
1533.5,0.0000
1534.4,0.0000
1535.4,0.0000
1536.4,0.0000
1537.4,0.0000
1538.3,6.1100
1539.3,0.0000
1540.3,0.0000
1541.3,43.4200
1542.2,62.7400
1543.2,147.9800
1544.2,146.5700
1545.2,238.6000
1546.2,346.4900
1547.1,417.2700
1548.1,630.2600
1549.1,704.7000
1550.0,972.7100
1551.0,1193.2600
1552.0,1510.0400
1553.0,1877.9500
1554.0,2328.0000
1554.9,2946.6100
1555.9,3499.0200
1556.9,4297.5300
1557.8,5043.8600
1558.8,5740.5400
1559.8,6536.7700
1560.8,7231.1100
1561.7,7796.8600
1562.7,7978.0800
1563.7,7983.9700
1564.6,7771.0100
1565.6,7407.0700
1566.6,7017.3500
1567.5,6552.5800
1568.5,5878.1900
1569.5,5250.7200
1570.4,4543.6600
1571.4,3956.9000
1572.4,3289.1500
1573.3,2787.3800
1574.3,2306.2400
1575.3,1851.8000
1576.2,1489.7500
1577.2,1173.3800
1578.2,934.3400
1579.1,709.0500
1580.1,541.1900
1581.1,411.4200
1582.0,302.3200
1583.0,176.9200
1584.0,147.0400
1584.9,95.5600
1585.9,78.5800
1586.8,54.8300
1587.8,86.0200
1588.8,106.8800
1589.7,111.7000
1590.7,243.8200
1591.6,339.5000
1592.6,457.7300
1593.6,560.5100
1594.5,740.2800
1595.5,962.5200
1596.4,1111.5500
1597.4,1410.7700
1598.3,1786.8700
1599.3,2251.6600
1600.3,2648.1800
1601.2,3312.7500
1602.2,4013.9900
1603.1,4749.9400
1604.1,5706.5000
1605.0,6858.8200
1606.0,8221.8100
1607.0,10050.9900
1607.9,12044.1900
1608.9,14278.9300
1609.8,16813.6900
1610.8,18769.2900
1611.7,19954.4700
1612.7,20023.2900
1613.6,18851.9300
1614.6,17407.3400
1615.5,15941.6000
1616.5,15347.3800
1617.4,15436.1400
1618.4,16063.1200
1619.3,16921.8500
1620.3,17188.1100
1621.2,16986.3600
1622.2,16137.7500
1623.1,14237.5900
1624.1,12152.0300
1625.0,9775.8000
1626.0,7771.5600
1626.9,5979.3600
1627.9,4788.3800
1628.8,4034.7800
1629.8,3491.7000
1630.7,3126.7000
1631.7,2921.2700
1632.6,2868.0800
1633.6,2869.7000
1634.5,2967.8200
1635.5,3069.6200
1636.4,3341.6700
1637.3,3672.8200
1638.3,3967.7600
1639.2,4358.7400
1640.2,4949.4100
1641.1,5403.5900
1642.1,5978.4500
1643.0,6881.6800
1643.9,7888.1400
1644.9,9075.6300
1645.8,10503.0300
1646.8,12345.5800
1647.7,14278.4100
1648.7,16370.3100
1649.6,17637.7600
1650.5,17934.8000
1651.5,17165.7700
1652.4,15655.9500
1653.3,13797.7500
1654.3,12308.0100
1655.2,11276.8000
1656.2,10816.7900
1657.1,10700.6900
1658.0,10428.7600
1659.0,10172.2000
1659.9,9315.4500
1660.8,8090.2000
1661.8,6760.7700
1662.7,5375.3700
1663.7,4201.0800
1664.6,3327.6700
1665.5,2562.2100
1666.5,2068.4100
1667.4,1665.2900
1668.3,1467.3100
1669.2,1260.2200
1670.2,1121.9800
1671.1,882.7800
1672.0,775.3000
1673.0,623.0100
1673.9,540.6700
1674.8,379.0600
1675.8,368.8600
1676.7,266.9200
1677.6,255.0900
1678.6,203.5300
1679.5,117.2700
1680.4,117.1300
1681.4,86.7200
1682.3,87.8900
1683.2,19.6000
1684.1,0.0000
1685.1,0.0000
1686.0,0.0000
1686.9,0.0000
1687.8,0.0000
1688.8,0.0000
1689.7,0.0000
1690.6,0.0000
1691.5,1.3200
1692.5,0.0000
1693.4,0.0000
1694.3,0.0000
1695.2,0.0000
1696.2,0.0000
1697.1,2.0000
1698.0,0.0000
1698.9,0.0000
1699.9,18.3100
1700.8,3.4600
1701.7,0.0000
1702.6,24.9700
1703.5,0.0000
1704.5,0.0000
1705.4,0.0000
1706.3,10.8400
1707.2,14.6300
1708.2,0.0000
1709.1,7.2900
1710.0,17.3900
1710.9,0.0000
1711.8,19.8600
1712.8,0.0000
1713.7,6.4700
1714.6,26.6400
1715.5,23.1700
1716.4,0.0000
1717.3,0.0000
1718.2,13.1400
1719.2,6.0600
1720.1,62.6500
1721.0,22.5500
1721.9,0.0000
1722.8,32.0500
1723.7,0.9400
1724.7,0.0000
1725.6,0.0000
1726.5,25.3400
1727.4,50.2800
1728.3,0.0000
1729.2,44.8700
1730.1,0.0000
1731.0,16.9500
1731.9,31.1500
1732.8,21.2500
1733.8,49.4900
1734.7,0.0000
1735.6,57.8800
1736.5,32.4600
1737.4,22.6200
1738.3,24.5000
1739.2,0.0000
1740.1,53.7000
1741.0,29.2500
1741.9,48.7600
1742.8,77.7500
1743.8,15.4300
1744.7,72.0200
1745.6,21.4000
1746.5,16.4900
1747.4,32.9200
1748.3,49.3800
1749.2,18.3200
1750.1,29.2300
1751.0,40.9600
1751.9,47.1400
1752.8,40.6100
1753.7,14.9300
1754.6,36.2500
1755.5,16.1000
1756.4,0.0000
1757.3,48.0700
1758.2,31.4900
1759.1,46.1400
1760.0,36.7400
1760.9,41.7700
1761.8,78.1600
1762.7,22.0800
1763.6,61.7400
1764.5,73.2600
1765.4,133.2400
1766.3,90.7000
1767.2,131.4000
1768.1,140.6000
1769.0,123.8700
1769.9,82.7500
1770.8,104.9100
1771.7,59.6200
1772.6,90.7500
1773.5,60.0100
1774.4,61.0100
1775.3,65.2800
1776.2,15.6000
1777.1,63.2000
1778.0,71.5700
1778.9,81.6000
1779.8,25.9600
1780.6,23.6300
1781.5,48.4300
1782.4,23.8700
1783.3,6.6700
1784.2,61.2400
1785.1,25.8600
1786.0,17.7000
1786.9,0.0000
1787.8,28.6000
1788.7,28.6400
1789.6,15.3800
1790.5,33.6900
1791.3,0.0000
1792.2,39.9000
1793.1,21.8900
1794.0,63.1300
1794.9,23.3600
1795.8,42.0900
1796.7,32.3800
1797.5,10.0500
1798.4,30.5000
1799.3,29.1400
1800.2,36.1800
1801.1,39.0300
1802.0,1.4000
1802.9,68.4400
1803.8,35.0500
1804.6,48.9700
1805.5,52.7500
1806.4,43.8100
1807.3,15.3300
1808.2,41.1700
1809.0,4.9600
1809.9,41.0700
1810.8,19.2700
1811.7,32.4100
1812.6,43.0200
1813.5,0.0000
1814.3,29.4700
1815.2,36.0900
1816.1,31.5700
1817.0,0.0000
1817.9,28.4600
1818.7,45.3800
1819.6,14.9100
1820.5,30.1200
1821.4,46.2300
1822.2,43.3400
1823.1,24.8600
1824.0,18.4700
1824.9,62.4000
1825.8,21.2800
1826.6,77.4900
1827.5,79.8300
1828.4,67.3600
1829.3,91.5100
1830.1,86.8800
1831.0,33.2600
1831.9,116.1200
1832.8,76.4400
1833.6,88.4400
1834.5,78.5000
1835.4,101.0900
1836.2,109.6400
1837.1,75.8800
1838.0,62.3400
1838.9,79.7100
1839.7,73.2200
1840.6,103.9200
1841.5,55.7700
1842.3,51.0000
1843.2,70.2200
1844.1,90.3700
1845.0,58.9000
1845.8,95.1300
1846.7,131.4500
1847.6,85.6100
1848.4,93.3600
1849.3,102.0200
1850.2,125.9400
1851.0,150.8200
1851.9,150.5800
1852.8,130.5400
1853.6,186.1400
1854.5,183.2300
1855.4,190.2400
1856.2,124.0400
1857.1,138.2400
1858.0,114.4100
1858.8,110.4800
1859.7,128.3500
1860.5,143.5200
1861.4,67.6800
1862.3,105.6100
1863.1,68.7800
1864.0,95.8300
1864.9,88.1800
1865.7,63.1100
1866.6,108.5800
1867.4,63.2700
1868.3,46.3500
1869.2,49.6300
1870.0,53.8300
1870.9,50.6700
1871.7,77.0400
1872.6,84.0600
1873.5,35.5600
1874.3,75.9100
1875.2,63.4600
1876.0,72.3500
1876.9,71.9600
1877.7,80.8700
1878.6,74.8900
1879.5,105.2900
1880.3,112.4100
1881.2,82.1100
1882.0,99.5100
1882.9,94.4500
1883.7,73.4100
1884.6,65.4800
1885.4,104.5800
1886.3,116.4500
1887.2,108.5300
1888.0,77.9300
1888.8,67.1100
1889.7,108.3300
1890.6,134.4800
1891.4,63.9000
1892.3,61.5600
1893.1,83.9400
1894.0,104.4600
1894.8,81.1700
1895.7,71.1900
1896.5,50.6700
1897.4,42.5400
1898.2,106.2500
1899.1,86.6500
1899.9,115.9800
1900.8,139.6100
1901.6,118.0500
1902.5,158.1200
1903.3,133.6300
1904.1,72.3600
1905.0,98.0100
1905.8,110.1600
1906.7,83.5400
1907.5,103.4600
1908.4,76.7700
1909.2,75.3100
1910.1,85.5500
1910.9,49.9400
1911.8,71.8900
1912.6,65.5300
1913.4,80.6900
1914.3,56.6600
1915.1,45.3400
1916.0,63.4700
1916.8,78.7000
1917.7,59.4700
1918.5,50.0600
1919.3,34.6900
1920.2,51.9300
1921.0,39.4900
1921.8,50.8200
1922.7,50.2700
1923.5,66.6100
1924.4,43.1700
1925.2,24.6600
1926.0,16.0800
1926.9,46.4300
1927.7,30.8500
1928.6,0.0000
1929.4,46.6000
1930.2,0.0000
1931.1,42.1600
1931.9,60.5300
1932.7,56.7700
1933.6,91.3400
1934.4,50.2400
1935.2,63.6400
1936.1,55.8100
1936.9,78.3800
1937.7,73.6000
1938.6,107.4200
1939.4,113.8500
1940.2,89.7200
1941.1,70.6300
1941.9,90.3200
1942.7,15.9300
1943.6,27.4000
1944.4,64.5300
1945.2,46.3000
1946.1,118.5100
1946.9,75.5900
1947.7,63.4900
1948.5,26.5800
1949.4,17.4800
1950.2,78.7200
1951.0,30.2900
1951.9,96.8800
1952.7,70.1600
1953.5,51.6900
1954.3,62.3200
1955.2,46.9200
1956.0,40.8700
1956.8,52.5700
1957.7,73.7200
1958.5,40.4300
1959.3,50.0700
1960.1,49.2300
1961.0,41.0200
1961.8,8.5500
1962.6,7.6500
1963.4,80.6700
1964.2,75.6300
1965.1,57.8600
1965.9,57.0000
1966.7,67.8200
1967.5,57.4100
1968.4,36.3200
1969.2,66.3300
1970.0,68.6800
1970.8,59.2700
1971.6,72.3100
1972.5,39.3100
1973.3,70.5800
1974.1,40.7100
1974.9,40.8800
1975.7,85.1900
1976.6,76.7900
1977.4,123.4200
1978.2,32.8700
1979.0,39.5100
1979.8,103.6200
1980.7,72.3700
1981.5,59.5200
1982.3,58.6100
1983.1,90.3800
1983.9,34.9400
1984.7,35.0700
1985.5,38.4900
1986.4,0.0000
1987.2,11.1800
1988.0,51.7700
1988.8,53.9600
1989.6,53.9600
1990.4,52.8500
1991.2,71.6100
1992.0,88.2100
1992.9,71.6400
1993.7,42.8300
1994.5,70.5500
1995.3,46.1100
1996.1,62.7700
1996.9,0.3600
1997.7,44.9200
1998.5,42.6700
1999.3,89.6400
2000.2,30.3000
2001.0,60.5500
2001.8,21.2300
2002.6,43.6700
2003.4,59.4100
2004.2,41.3500
2005.0,22.1100
2005.8,22.0500
2006.6,53.6900
2007.4,58.2000
2008.2,55.9000
2009.0,4.7100
2009.8,66.0900
2010.6,62.6600
2011.5,31.8100
2012.2,53.4600
2013.1,59.1400
2013.9,75.1600
2014.7,12.0100
2015.5,52.1400
2016.3,58.9900
2017.1,63.5600
2017.9,86.6000
2018.7,95.8300
2019.5,86.5800
2020.3,132.9100
2021.1,123.6800
2021.9,148.1100
2022.7,163.3000
2023.5,142.4100
2024.3,150.6300
2025.1,163.5400
2025.9,161.2700
2026.7,133.2300
2027.5,142.6500
2028.3,174.4000
2029.1,122.7300
2029.9,173.3900
2030.7,133.3700
2031.5,155.8300
2032.2,121.5800
2033.0,150.0000
2033.8,107.3500
2034.6,97.8200
2035.4,83.5100
2036.2,76.3100
2037.0,76.2300
2037.8,54.6600
2038.6,50.9700
2039.4,76.0000
2040.2,0.3800
2041.0,42.2300
2041.8,74.5800
2042.6,75.7100
2043.4,37.0600
2044.2,100.9200
2045.0,63.4000
2045.7,72.9900
2046.5,75.3300
2047.3,105.5900
2048.1,66.6400
2048.9,45.8400
2049.7,104.2300
2050.5,77.3200
2051.3,69.8900
2052.1,82.0200
2052.8,86.8300
2053.6,75.7000
2054.4,124.7700
2055.2,61.9400
2056.0,117.2900
2056.8,102.4200
2057.6,42.9900
2058.3,89.8800
2059.1,109.6100
2059.9,73.5300
2060.7,100.7600
2061.5,88.2100
2062.3,93.0900
2063.1,92.9800
2063.8,120.3800
2064.6,96.5100
2065.4,77.5900
2066.2,79.9600
2067.0,82.3300
2067.8,49.4500
2068.5,94.6600
2069.3,118.5300
2070.1,61.5300
2070.9,70.2100
2071.7,120.7700
2072.4,90.1900
2073.2,101.4900
2074.0,61.8800
2074.8,88.4700
2075.6,62.7700
2076.3,76.6400
2077.1,70.0600
2077.9,39.0800
2078.7,65.8200
2079.4,99.0600
2080.2,88.6000
2081.0,62.6200
2081.8,98.5800
2082.6,99.7100
2083.3,91.7700
2084.1,48.7700
2084.9,86.2100
2085.7,108.1300
2086.4,85.8100
2087.2,80.3900
2088.0,90.6400
2088.7,144.1000
2089.5,69.2600
2090.3,33.5900
2091.1,62.2200
2091.8,80.3900
2092.6,78.8500
2093.4,83.8900
2094.1,90.2800
2094.9,67.5500
2095.7,51.3800
2096.4,140.0600
2097.2,153.2000
2098.0,149.0600
2098.8,107.5600
2099.5,116.7000
2100.3,131.2100
2101.1,113.6100
2101.8,171.0800
2102.6,109.1500
2103.4,139.8600
2104.1,83.0900
2104.9,93.6100
2105.7,70.3800
2106.4,94.4500
2107.2,64.3700
2108.0,26.0500
2108.7,22.9600
2109.5,67.5100
2110.3,7.2100
2111.0,48.1200
2111.8,59.0700
2112.6,56.3600
2113.3,56.3700
2114.1,34.4100
2114.8,67.4000
2115.6,31.6000
2116.4,99.1600
2117.1,61.9200
2117.9,108.9600
2118.7,42.5200
2119.4,28.6100
2120.2,28.5600
2120.9,50.7600
2121.7,39.5800
2122.4,56.2700
2123.2,45.0600
2124.0,70.2000
2124.7,78.6000
2125.5,30.8500
2126.2,34.9800
2127.0,40.5300
2127.8,91.2300
2128.5,57.3200
2129.3,85.5500
2130.0,55.7700
2130.8,68.4700
2131.5,15.8400
2132.3,48.4300
2133.0,56.8900
2133.8,63.9400
2134.6,43.8500
2135.3,73.8000
2136.1,0.6100
2136.8,23.4300
2137.6,23.3000
2138.3,56.3000
2139.1,37.4600
2139.8,44.5700
2140.6,14.0800
2141.3,15.3700
2142.1,0.6900
2142.8,54.3100
2143.6,0.0000
2144.3,7.2300
2145.1,30.1600
2145.8,63.4000
2146.6,73.3000
2147.3,31.8900
2148.1,88.7700
2148.8,9.0100
2149.6,21.8200
2150.3,59.7500
2151.1,56.4100
2151.8,27.9000
2152.6,37.8400
2153.3,24.0500
2154.1,38.4700
2154.8,48.4600
2155.5,89.8000
2156.3,70.0200
2157.0,75.6100
2157.8,52.7500
2158.5,107.8400
2159.3,39.8600
2160.0,84.5600
2160.8,43.4600
2161.5,83.7700
2162.2,72.7800
2163.0,78.4100
2163.7,97.7100
2164.5,32.0000
2165.2,54.3300
2165.9,49.2900
2166.7,21.3400
2167.4,71.2500
2168.2,34.0600
2168.9,19.7500
2169.6,65.2700
2170.4,66.3300
2171.1,30.4300
2171.9,68.4600
2172.6,24.7200
2173.3,61.3000
2174.1,57.7000
2174.8,57.1900
2175.6,45.7900
2176.3,42.1400
2177.0,43.1500
2177.8,58.2200
2178.5,1.3700
2179.2,66.6200
2180.0,22.2200
2180.7,71.9800
2181.4,112.4500
2182.2,129.3900
2182.9,42.1700
2183.6,92.2500
2184.4,80.7200
2185.1,126.2600
2185.8,75.0200
2186.6,71.3500
2187.3,105.9200
2188.0,87.9100
2188.8,101.8200
2189.5,96.5600
2190.2,68.8200
2190.9,61.8700
2191.7,124.0800
2192.4,118.8000
2193.1,53.7900
2193.9,148.6000
2194.6,76.9400
2195.3,81.2700
2196.1,92.1000
2196.8,70.4300
2197.5,55.2100
2198.2,72.5700
2199.0,65.4700
2199.7,81.2600
2200.4,39.7000
2201.2,85.0500
2201.9,86.1300
2202.6,14.7200
2203.3,47.0400
2204.1,91.0200
2204.8,50.7200
2205.5,91.5300
2206.2,66.0300
2206.9,37.1300
2207.7,58.1100
2208.4,82.4800
2209.1,70.1700
2209.8,29.3500
2210.6,67.2000
2211.3,90.0600
2212.0,37.2900
2212.7,93.8600
2213.4,91.5400
2214.2,68.9300
2214.9,64.8700
2215.6,89.6100
2216.3,80.4700
2217.0,81.5000
2217.8,118.3000
2218.5,51.1300
2219.2,17.9200
2219.9,23.9700
2220.6,0.0000
2221.3,10.2400
2222.1,0.6800
2222.8,77.2800
2223.5,52.3100
2224.2,70.4600
2224.9,71.3500
2225.7,54.9000
2226.4,64.4500
2227.1,103.6000
2227.8,55.7500
2228.5,100.2400
2229.2,41.7300
2229.9,49.5700
2230.7,106.5400
2231.4,74.0900
2232.1,66.1700
2232.8,52.9300
2233.5,78.4900
2234.2,137.7200
2234.9,55.4500
2235.6,68.7000
2236.3,80.2200
2237.1,43.7100
2237.8,74.8300
2238.5,98.9000
2239.2,83.7000
2239.9,27.2400
2240.6,80.0500
2241.3,23.4000
2242.0,85.3700
2242.7,48.3600
2243.4,56.3900
2244.1,49.9600
2244.8,70.6900
2245.6,24.3300
2246.3,46.8900
2247.0,64.0700
2247.7,1.0400
2248.4,78.5300
2249.1,26.3400
2249.8,8.8000
2250.5,31.5900
2251.2,52.6200
2251.9,5.5500
2252.6,50.5900
2253.3,31.0800
2254.0,0.0000
2254.7,4.6600
2255.4,83.2500
2256.1,46.7400
2256.8,64.1400
2257.5,23.7400
2258.2,63.6000
2258.9,21.1700
2259.6,72.4100
2260.3,61.8000
2261.0,13.5100
2261.7,8.4200
2262.4,44.8500
2263.1,47.3600
2263.8,27.1300
2264.5,118.8100
2265.2,35.8800
2265.9,47.9000
2266.6,54.2200
2267.3,94.9700
2268.0,63.1000
2268.7,75.2300
2269.4,108.5200
2270.1,18.8000
2270.8,100.2700
2271.5,29.5300
2272.2,101.6200
2272.9,71.3100
2273.6,83.5700
2274.3,64.7700
2275.0,36.1800
2275.7,64.0300
2276.3,80.2500
2277.1,39.7900
2277.7,75.6100
2278.4,105.6700
2279.1,43.4000
2279.8,40.0100
2280.5,28.7200
2281.2,39.1200
2281.9,29.7600
2282.6,26.3100
2283.3,38.7300
2284.0,53.1900
2284.7,29.8200
2285.3,38.3100
2286.0,70.8300
2286.7,17.3100
2287.4,53.9100
2288.1,0.0000
2288.8,77.0400
2289.5,69.4500
2290.2,39.6000
2290.8,25.8500
2291.5,28.2600
2292.2,40.8300
2292.9,79.8900
2293.6,68.1300
2294.3,52.2400
2295.0,73.1100
2295.6,28.4900
2296.3,74.0100
2297.0,43.6200
2297.7,79.0200
2298.4,65.0300
2299.1,24.1300
2299.8,125.8900
2300.4,35.1900
2301.1,93.7100
2301.8,146.1800
2302.5,73.7900
2303.2,13.6800
2303.8,99.7300
2304.5,77.1500
2305.2,77.5700
2305.9,52.7600
2306.6,57.3500
2307.2,66.1600
2307.9,34.8600
2308.6,14.0300
2309.3,22.8000
2310.0,54.9700
2310.6,100.0100
2311.3,102.5800
2312.0,66.7200
2312.7,32.8700
2313.3,37.4700
2314.0,72.1300
2314.7,0.0000
2315.4,98.1400
2316.1,61.3100
2316.7,9.2100
2317.4,73.8500
2318.1,45.4500
2318.8,29.9800
2319.4,0.0000
2320.1,30.8900
2320.8,93.2400
2321.4,107.6800
2322.1,54.2200
2322.8,44.4900
2323.5,23.7300
2324.1,38.1500
2324.8,70.2800
2325.5,73.7800
2326.2,90.5900
2326.8,80.8300
2327.5,53.2500
2328.2,58.9700
2328.8,66.9500
2329.5,90.6000
2330.2,98.6600
2330.8,66.3900
2331.5,20.5300
2332.2,102.7800
2332.8,56.8200
2333.5,40.0500
2334.2,30.0200
2334.8,60.7500
2335.5,66.6100
2336.2,33.8300
2336.8,51.0600
2337.5,34.1100
2338.2,30.8200
2338.8,59.6000
2339.5,51.7600
2340.2,64.5800
2340.8,29.0900
2341.5,16.5400
2342.2,82.5300
2342.8,86.2400
2343.5,41.2600
2344.2,51.8800
2344.8,81.1700
2345.5,33.6100
2346.2,93.3400
2346.8,24.5600
2347.5,51.6700
2348.1,67.1300
2348.8,52.0600
2349.5,77.0100
2350.1,0.0000
2350.8,15.8900
2351.4,55.0400
2352.1,23.1000
