wavenumber,intensity
405.4,187.2000
406.7,150.9400
407.9,114.1100
409.2,65.7700
410.5,57.3500
411.7,36.7600
413.0,24.5500
414.3,15.5700
415.5,0.0000
416.8,15.6100
418.0,4.1300
419.3,0.0000
420.6,0.0000
421.8,3.3300
423.1,5.3600
424.3,0.0000
425.6,0.0000
426.9,0.0000
428.1,0.0000
429.4,0.0000
430.6,0.0000
431.9,5.1200
433.1,5.7700
434.4,0.0000
435.7,1.8600
436.9,0.0000
438.2,4.7100
439.4,0.0000
440.7,5.6400
442.0,9.2800
443.2,16.0700
444.5,0.0000
445.7,12.0600
447.0,0.0000
448.2,21.6800
449.5,34.5100
450.8,0.0000
452.0,42.4200
453.3,14.3000
454.5,31.3900
455.8,40.3000
457.0,32.2900
458.3,40.5700
459.5,45.7100
460.8,26.4700
462.0,60.9900
463.3,69.8600
464.6,64.3800
465.8,80.7300
467.1,82.7200
468.3,98.4200
469.6,130.2800
470.8,121.6800
472.1,138.5700
473.3,133.0800
474.6,168.5700
475.8,190.3800
477.1,197.2700
478.3,261.1600
479.6,276.6800
480.8,310.1200
482.1,354.0400
483.3,383.0700
484.6,479.3900
485.8,517.5700
487.1,581.0000
488.3,653.5900
489.6,782.7700
490.8,833.6100
492.1,877.6100
493.3,908.6500
494.6,930.4300
495.8,896.3100
497.1,851.1800
498.3,841.0700
499.6,761.1000
500.8,693.4800
502.0,663.9000
503.3,661.2900
504.5,628.1100
505.8,595.5800
507.0,622.3400
508.3,572.7800
509.5,554.9900
510.8,603.6800
512.0,579.8100
513.2,602.8600
514.5,649.6200
515.7,700.5800
517.0,741.1500
518.2,830.2600
519.5,884.6700
520.7,983.9200
522.0,1127.9200
523.2,1272.3500
524.4,1430.5500
525.7,1648.4900
526.9,1851.6500
528.2,2093.8700
529.4,2424.0300
530.6,2687.9800
531.9,2849.6400
533.1,2911.5900
534.4,2766.1300
535.6,2507.5800
536.9,2202.3700
538.1,1888.5000
539.3,1648.3600
540.6,1367.0300
541.8,1173.7300
543.1,986.0600
544.3,864.0100
545.5,754.6900
546.8,635.9100
548.0,560.4000
549.2,526.8700
550.5,447.3200
551.7,384.0100
553.0,345.2800
554.2,329.8800
555.4,278.6900
556.7,260.9600
557.9,231.3400
559.1,215.4500
560.4,179.9300
561.6,167.6700
562.9,151.8500
564.1,131.8900
565.3,132.1700
566.6,106.3000
567.8,105.4100
569.0,95.6100
570.3,75.1600
571.5,77.8400
572.7,71.0400
574.0,57.1500
575.2,52.7500
576.4,39.4800
577.7,42.7700
578.9,32.4800
580.1,43.4600
581.4,21.3800
582.6,22.3300
583.8,16.7900
585.1,4.1900
586.3,7.1400
587.5,1.0200
588.8,4.9700
590.0,3.8700
591.2,15.9000
592.4,5.6100
593.7,1.7800
594.9,0.0000
596.1,6.3300
597.4,3.4600
598.6,5.8700
599.8,9.4500
601.0,6.0100
602.3,4.9100
603.5,7.3300
604.7,0.0000
606.0,0.4400
607.2,0.5100
608.4,0.6100
609.6,0.0000
610.9,0.0000
612.1,0.0000
613.3,3.4400
614.5,5.1600
615.8,0.0000
617.0,12.0800
618.2,7.4000
619.4,0.4000
620.7,5.6100
621.9,10.8100
623.1,6.7200
624.3,14.2400
625.6,15.3800
626.8,7.2500
628.0,9.5500
629.2,8.9600
630.5,2.5900
631.7,0.0000
632.9,0.0000
634.1,3.9100
635.3,1.8400
636.6,0.0000
637.8,2.0600
639.0,1.4500
640.2,0.0000
641.4,0.0000
642.7,0.0000
643.9,1.9600
645.1,0.0000
646.3,1.8900
647.5,2.3200
648.8,0.4600
650.0,5.4800
651.2,0.7500
652.4,0.0000
653.6,0.0000
654.9,5.2900
656.1,0.0000
657.3,0.0000
658.5,0.1300
659.7,1.0100
660.9,7.0400
662.1,1.0600
663.4,0.0000
664.6,0.8800
665.8,0.0000
667.0,2.1800
668.2,0.5400
669.4,0.0000
670.7,0.0000
671.9,5.5900
673.1,0.0000
674.3,0.0000
675.5,0.0000
676.7,0.0000
677.9,0.0000
679.1,0.1400
680.4,3.5100
681.6,0.0000
682.8,0.9500
684.0,0.1200
685.2,1.5600
686.4,0.0000
687.6,6.6500
688.9,9.1700
690.1,9.4200
691.3,12.5000
692.5,20.0900
693.7,22.0300
694.9,29.0500
696.1,6.6900
697.3,7.5000
698.5,7.7400
699.7,8.5500
700.9,0.0000
702.1,0.0000
703.4,2.6300
704.6,3.0100
705.8,0.0000
707.0,0.0000
708.2,0.0000
709.4,0.0000
710.6,0.0000
711.8,0.0000
713.0,0.0000
714.2,0.0000
715.4,0.0000
716.6,0.0000
717.8,0.0000
719.0,3.3300
720.2,0.0000
721.4,0.0000
722.6,0.0000
723.8,0.0000
725.0,0.0000
726.2,0.0000
727.5,0.0000
728.7,0.0000
729.9,2.6300
731.1,0.1700
732.3,3.8700
733.5,8.3100
734.7,0.0000
735.9,7.3600
737.1,9.2000
738.3,11.5200
739.5,26.1500
740.7,34.8800
741.9,52.6300
743.1,79.2700
744.3,77.5100
745.5,106.9100
746.7,112.3700
747.9,132.8400
749.0,158.8500
750.2,159.8400
751.5,210.8200
752.6,222.8900
753.8,273.8200
755.0,293.0700
756.2,308.9900
757.4,380.3500
758.6,430.0500
759.8,494.6700
761.0,540.4200
762.2,615.4900
763.4,702.6900
764.6,797.0400
765.8,885.2400
767.0,1035.3300
768.2,1239.5200
769.4,1392.7300
770.6,1619.3500
771.8,1899.9600
773.0,2263.8100
774.1,2693.1300
775.3,3193.9500
776.5,3887.6000
777.7,4748.5400
778.9,5770.5400
780.1,7101.7700
781.3,8620.7000
782.5,10405.9800
783.7,12821.4600
784.9,15578.0600
786.0,18586.8600
787.2,21504.8000
788.4,23762.5400
789.6,24685.7900
790.8,23939.1500
792.0,21726.9000
793.2,18393.1700
794.4,15149.2200
795.6,12153.7100
796.8,9637.5800
797.9,7626.2300
799.1,6092.3500
800.3,4930.2000
801.5,4040.7400
802.7,3314.6200
803.9,2769.8100
805.0,2364.5000
806.2,1986.2500
807.4,1735.8400
808.6,1471.3200
809.8,1279.7500
811.0,1152.8800
812.2,1036.4700
813.3,917.9300
814.5,834.4500
815.7,735.7100
816.9,621.1600
818.1,594.6600
819.2,490.5900
820.4,469.6000
821.6,409.8500
822.8,392.1600
824.0,338.4600
825.2,295.1500
826.3,308.0700
827.5,260.9700
828.7,216.6200
829.9,216.4600
831.1,186.3100
832.2,150.1800
833.4,154.3900
834.6,153.1500
835.8,137.2100
837.0,103.8500
838.1,79.2100
839.3,68.7400
840.5,50.6500
841.7,46.0000
842.8,23.4100
844.0,20.0100
845.2,1.8900
846.4,2.3600
847.5,5.1400
848.7,0.0000
849.9,3.3300
851.1,0.0000
852.2,3.5600
853.4,0.0000
854.6,0.0000
855.8,1.4200
856.9,5.5600
858.1,0.0000
859.3,5.4500
860.5,15.3000
861.6,34.9100
862.8,18.7300
864.0,39.4200
865.1,35.7100
866.3,65.0500
867.5,55.9300
868.6,64.6900
869.8,92.3900
871.0,95.1800
872.2,80.6600
873.3,88.8700
874.5,100.8600
875.7,114.4800
876.8,107.5400
878.0,84.9200
879.2,102.3200
880.3,118.0900
881.5,118.7300
882.7,111.2600
883.8,123.7900
885.0,151.4400
886.2,156.9400
887.3,163.5200
888.5,178.7300
889.7,204.7500
890.8,212.9400
892.0,248.6600
893.2,261.1600
894.3,300.6400
895.5,294.7900
896.7,321.8500
897.8,359.1500
899.0,364.6300
900.1,407.8500
901.3,428.9500
902.5,437.1200
903.6,429.6500
904.8,456.6800
906.0,440.0600
907.1,443.9100
908.3,428.3800
909.4,420.3900
910.6,404.3300
911.8,375.3400
912.9,368.4500
914.1,340.5600
915.2,326.1300
916.4,293.4100
917.6,282.2300
918.7,245.7600
919.9,242.1200
921.0,216.4200
922.2,210.6400
923.4,194.1000
924.5,164.6600
925.7,174.4800
926.8,154.7200
928.0,160.2400
929.1,144.2600
930.3,121.8300
931.4,106.9400
932.6,95.8000
933.8,83.6000
934.9,75.7000
936.1,74.2500
937.2,72.2600
938.4,54.6900
939.5,48.9500
940.7,40.5200
941.8,33.1700
943.0,27.4300
944.1,27.0700
945.3,26.7000
946.4,25.8000
947.6,22.2200
948.7,18.0900
949.9,17.7300
951.0,14.6900
952.2,16.4800
953.3,16.6500
954.5,7.1700
955.6,0.0000
956.8,7.1600
957.9,1.6000
959.1,0.0000
960.2,0.0000
961.4,5.8600
962.5,0.0000
963.7,0.0000
964.8,0.0000
966.0,1.2700
967.1,0.0000
968.3,0.0000
969.4,3.9700
970.5,0.0000
971.7,4.9800
972.8,0.0000
974.0,3.0300
975.1,15.0400
976.3,15.2600
977.4,2.0700
978.6,11.4000
979.7,16.9800
980.9,19.8800
982.0,23.8500
983.1,28.3500
984.3,32.8600
985.4,32.5400
986.6,34.3700
987.7,35.1200
988.8,14.9800
990.0,11.4500
991.1,13.8100
992.3,18.8600
993.4,7.8300
994.5,3.7600
995.7,7.2000
996.8,0.0000
998.0,5.3600
999.1,0.0000
1000.2,4.3800
1001.4,30.1000
1002.5,92.8000
1003.6,203.7200
1004.8,274.4600
1005.9,254.1100
1007.0,158.2000
1008.2,83.7300
1009.3,47.8400
1010.5,23.7400
1011.6,0.0000
1012.7,1.7100
1013.9,1.2000
1015.0,3.9600
1016.1,10.4800
1017.3,6.2700
1018.4,2.0700
1019.5,7.6200
1020.7,4.5900
1021.8,18.4100
1022.9,27.4100
1024.1,14.9700
1025.2,31.4700
1026.3,55.4700
1027.5,46.2500
1028.6,54.7100
1029.7,83.0100
1030.8,127.3900
1032.0,134.7900
1033.1,140.5800
1034.2,133.5000
1035.4,124.8100
1036.5,130.6100
1037.6,127.8200
1038.7,122.8900
1039.9,138.3300
1041.0,148.9500
1042.1,155.8200
1043.2,177.7100
1044.4,212.4700
1045.5,209.1600
1046.6,236.4200
1047.8,273.8700
1048.9,312.4100
1050.0,339.1500
1051.1,381.4500
1052.2,445.2200
1053.4,482.7100
1054.5,558.8400
1055.6,645.7200
1056.8,693.9600
1057.9,819.5200
1059.0,967.6400
1060.1,1106.1200
1061.2,1245.1600
1062.4,1428.7900
1063.5,1594.7400
1064.6,1783.8100
1065.7,2036.2900
1066.8,2213.0800
1068.0,2331.3500
1069.1,2394.8400
1070.2,2389.5800
1071.3,2215.0700
1072.4,2029.2400
1073.6,1796.6200
1074.7,1546.2200
1075.8,1359.7400
1076.9,1143.1200
1078.0,972.7000
1079.2,859.2400
1080.3,714.5700
1081.4,608.5900
1082.5,547.2300
1083.6,476.7200
1084.7,434.7100
1085.8,396.9900
1087.0,351.7300
1088.1,346.2900
1089.2,299.4000
1090.3,266.5000
1091.4,261.5800
1092.5,258.8200
1093.6,247.9800
1094.8,230.1400
1095.9,227.9100
1097.0,220.8400
1098.1,195.4400
1099.2,194.2900
1100.3,174.8200
1101.4,170.9700
1102.5,148.2500
1103.6,136.8500
1104.8,131.3700
1105.9,112.9600
1107.0,109.1000
1108.1,94.4500
1109.2,94.3600
1110.3,89.9600
1111.4,78.5400
1112.5,63.8800
1113.6,59.4800
1114.7,61.5500
1115.8,37.1600
1116.9,32.2000
1118.0,41.8300
1119.2,39.5800
1120.3,25.9800
1121.4,33.4500
1122.5,12.8200
1123.6,14.8900
1124.7,16.9600
1125.8,4.4200
1126.9,16.4500
1128.0,12.2500
1129.1,3.7200
1130.2,1.3300
1131.3,7.6700
1132.4,8.5900
1133.5,0.8500
1134.6,0.0000
1135.7,0.0000
1136.8,7.4500
1137.9,0.0000
1139.0,4.2300
1140.1,6.3400
1141.2,0.0000
1142.3,0.0000
1143.4,0.0000
1144.5,2.1600
1145.6,7.3000
1146.7,9.7300
1147.8,0.0000
1148.9,0.0000
1150.0,0.0000
1151.1,1.5500
1152.2,0.3100
1153.3,0.0000
1154.4,0.0000
1155.5,1.9000
1156.6,0.0000
1157.7,1.4100
1158.8,0.0000
1159.9,3.3000
1161.0,4.3600
1162.1,0.0000
1163.2,11.8100
1164.2,1.3000
1165.3,0.0000
1166.4,2.5600
1167.5,2.4100
1168.6,6.1900
1169.7,12.1600
1170.8,2.8700
1171.9,6.8000
1173.0,18.1800
1174.1,19.7400
1175.2,25.1200
1176.2,32.6900
1177.3,22.2400
1178.4,32.5400
1179.5,48.8600
1180.6,43.3300
1181.7,60.2100
1182.8,67.2600
1183.9,82.5100
1185.0,78.0800
1186.0,79.1300
1187.1,86.7400
1188.2,97.6400
1189.3,109.6400
1190.4,116.1700
1191.5,145.1700
1192.6,136.9200
1193.7,169.2300
1194.7,164.2700
1195.8,201.5400
1196.9,186.7200
1198.0,232.8000
1199.1,235.5500
1200.2,265.7500
1201.2,282.2400
1202.3,305.3300
1203.4,344.3700
1204.5,371.3400
1205.6,403.2700
1206.7,459.4300
1207.7,499.1100
1208.8,572.3800
1209.9,629.7400
1211.0,692.0800
1212.1,792.4600
1213.1,894.0100
1214.2,1012.7000
1215.3,1131.4600
1216.4,1273.4500
1217.5,1448.6200
1218.5,1629.9600
1219.6,1791.5500
1220.7,2038.2500
1221.8,2163.6300
1222.8,2348.7400
1223.9,2372.6300
1225.0,2415.8800
1226.1,2344.7100
1227.1,2187.2400
1228.2,1988.7300
1229.3,1818.3200
1230.4,1636.1900
1231.4,1406.8800
1232.5,1242.7800
1233.6,1073.6000
1234.7,945.3300
1235.7,828.0600
1236.8,742.3400
1237.9,621.0500
1239.0,539.1000
1240.0,501.5000
1241.1,438.3400
1242.2,386.2400
1243.2,350.2300
1244.3,323.6500
1245.4,290.9300
1246.5,267.6500
1247.5,231.0100
1248.6,195.4500
1249.7,200.5200
1250.7,183.8600
1251.8,171.6600
1252.9,156.1100
1253.9,136.0800
1255.0,116.0400
1256.1,102.1300
1257.1,80.9500
1258.2,88.2400
1259.3,83.8100
1260.3,75.4600
1261.4,76.0500
1262.5,68.2500
1263.5,48.7000
1264.6,61.6000
1265.7,55.4700
1266.7,37.0200
1267.8,29.2000
1268.8,30.9100
1269.9,47.1900
1271.0,38.2500
1272.0,36.0400
1273.1,17.5500
1274.2,14.7700
1275.2,5.2500
1276.3,15.0900
1277.3,7.5200
1278.4,6.1300
1279.5,0.0000
1280.5,17.4100
1281.6,0.2500
1282.6,1.6900
1283.7,0.0000
1284.8,3.7500
1285.8,8.8000
1286.9,0.0000
1287.9,0.0000
1289.0,0.0000
1290.0,0.0000
1291.1,0.0000
1292.2,0.0000
1293.2,0.0000
1294.3,0.5800
1295.3,0.0000
1296.4,0.0000
1297.4,0.0000
1298.5,0.0000
1299.5,0.0000
1300.6,5.2000
1301.7,0.0000
1302.7,1.9000
1303.8,0.0000
1304.8,0.0000
1305.9,7.8600
1306.9,0.0000
1308.0,3.3100
1309.0,0.6200
1310.1,5.9300
1311.1,0.0000
1312.2,0.3900
1313.2,8.9200
1314.3,0.0000
1315.3,6.9100
1316.4,0.0000
1317.4,0.0000
1318.5,11.1900
1319.5,7.5200
1320.6,15.2900
1321.6,15.6400
1322.7,0.0000
1323.7,7.1600
1324.7,0.0000
1325.8,27.4500
1326.8,20.1300
1327.9,17.9700
1328.9,0.0000
1330.0,14.8000
1331.0,20.8600
1332.1,23.3900
1333.1,33.4400
1334.2,42.3600
1335.2,59.3400
1336.2,37.7700
1337.3,80.9800
1338.3,95.9900
1339.4,90.2700
1340.4,127.2200
1341.4,128.4400
1342.5,144.0900
1343.5,199.0300
1344.6,234.9600
1345.6,249.5300
1346.7,260.6500
1347.7,330.2200
1348.7,365.1300
1349.8,438.3100
1350.8,463.4600
1351.8,564.0000
1352.9,619.4000
1353.9,696.9100
1355.0,758.8200
1356.0,831.2600
1357.0,942.7000
1358.1,961.8100
1359.1,937.8900
1360.1,936.6500
1361.2,884.7600
1362.2,836.3000
1363.2,790.7200
1364.3,762.5900
1365.3,716.3500
1366.3,677.6500
1367.4,668.1200
1368.4,642.8100
1369.4,611.6300
1370.5,635.9900
1371.5,598.3300
1372.5,608.0800
1373.6,595.5700
1374.6,631.7100
1375.6,615.1000
1376.7,614.9100
1377.7,631.1600
1378.7,667.9900
1379.8,661.9600
1380.8,692.3800
1381.8,694.6000
1382.8,705.0600
1383.9,744.4000
1384.9,741.9400
1385.9,790.7800
1387.0,814.3000
1388.0,791.2300
1389.0,849.6300
1390.0,850.7800
1391.0,915.7900
1392.1,919.3500
1393.1,969.0800
1394.1,1035.4500
1395.2,1005.3300
1396.2,1072.3900
1397.2,1109.8700
1398.2,1168.1700
1399.2,1183.1900
1400.3,1285.5600
1401.3,1297.1000
1402.3,1352.6700
1403.3,1449.3700
1404.4,1565.2300
1405.4,1598.4200
1406.4,1673.9700
1407.4,1769.8900
1408.4,1869.5000
1409.5,1941.1600
1410.5,2148.5300
1411.5,2224.6200
1412.5,2383.3500
1413.5,2564.4100
1414.6,2670.8300
1415.6,2827.1000
1416.6,3016.5300
1417.6,3201.3900
1418.6,3369.6600
1419.7,3508.7100
1420.7,3662.9500
1421.7,3858.8600
1422.7,3882.9500
1423.7,3996.1600
1424.7,4114.9400
1425.7,4168.1700
1426.8,4223.2800
1427.8,4259.1600
1428.8,4252.2200
1429.8,4302.0600
1430.8,4280.6500
1431.8,4329.3700
1432.8,4311.6000
1433.8,4260.5000
1434.9,4322.6500
1435.9,4270.3100
1436.9,4185.7500
1437.9,4064.6900
1438.9,3985.9900
1439.9,3920.5800
1440.9,3863.6100
1441.9,3722.6000
1443.0,3535.1700
1444.0,3463.8600
1445.0,3332.7300
1446.0,3099.5900
1447.0,2971.7500
1448.0,2808.9500
1449.0,2644.7300
1450.0,2518.8300
1451.0,2445.4000
1452.0,2327.1900
1453.0,2167.7900
1454.0,1981.2300
1455.0,1945.3200
1456.0,1849.8400
1457.0,1772.0600
1458.0,1640.1000
1459.0,1564.5500
1460.1,1522.7500
1461.1,1424.8700
1462.1,1361.9900
1463.1,1300.2700
1464.1,1211.9400
1465.1,1145.1100
1466.1,1112.1700
1467.1,1048.2800
1468.1,1002.2600
1469.1,946.8900
1470.1,886.5000
1471.1,831.0000
1472.1,787.2000
1473.1,742.7300
1474.1,707.5200
1475.1,645.5600
1476.1,593.4600
1477.1,560.5800
1478.1,546.3300
1479.1,509.0300
1480.1,495.3600
1481.1,451.7400
1482.1,403.0600
1483.1,398.6800
1484.1,359.2900
1485.0,342.3600
1486.0,322.2900
1487.0,311.5900
1488.0,242.5900
1489.0,243.1100
1490.0,231.0800
1491.0,211.5100
1492.0,222.0800
1493.0,154.6800
1494.0,165.2300
1495.0,141.7900
1496.0,134.0700
1497.0,136.4400
1498.0,129.3500
1499.0,90.6800
1500.0,86.0700
1500.9,60.6000
1501.9,80.7100
1502.9,65.3800
1503.9,66.5000
1504.9,61.2800
1505.9,49.0800
1506.9,58.4400
1507.9,43.6700
1508.8,25.7000
1509.8,31.2800
1510.8,8.8400
1511.8,23.1600
1512.8,8.1700
1513.8,9.5300
1514.8,12.6400
1515.8,3.6200
1516.7,12.6600
1517.7,21.0800
1518.7,32.7000
1519.7,10.3600
1520.7,0.0000
1521.7,0.0000
1522.7,0.0000
1523.6,18.9500
1524.6,0.0000
1525.6,12.2600
1526.6,2.1300
1527.6,10.7800
1528.5,22.6600
1529.5,24.8700
1530.5,4.4700
1531.5,39.6300
1532.5,10.1400
1533.5,40.8100
1534.4,35.2400
1535.4,12.1500
1536.4,3.2900
1537.4,47.6600
1538.3,18.0100
1539.3,42.2900
1540.3,28.8500
1541.3,48.6000
1542.2,41.6500
1543.2,22.9500
1544.2,43.3700
1545.2,35.0800
1546.2,66.6400
1547.1,39.3700
1548.1,34.3100
1549.1,56.1000
1550.0,39.8900
1551.0,30.2100
1552.0,28.3900
1553.0,52.1900
1554.0,43.7900
1554.9,43.2800
1555.9,31.5500
1556.9,31.6700
1557.8,38.3900
1558.8,53.6800
1559.8,43.2300
1560.8,52.5900
1561.7,56.6700
1562.7,56.1100
1563.7,52.8900
1564.6,52.9800
1565.6,49.7400
1566.6,67.0900
1567.5,36.5800
1568.5,23.3300
1569.5,45.3300
1570.4,50.0400
1571.4,50.0900
1572.4,54.7900
1573.3,44.1400
1574.3,48.1700
1575.3,52.2000
1576.2,40.8300
1577.2,46.1800
1578.2,62.2700
1579.1,73.0100
1580.1,51.5200
1581.1,46.7900
1582.0,60.2200
1583.0,48.7400
1584.0,56.1100
1584.9,52.7000
1585.9,48.5900
1586.8,66.0900
1587.8,36.2900
1588.8,59.8900
1589.7,51.0100
1590.7,29.9100
1591.6,37.9400
1592.6,19.5000
1593.6,24.8000
1594.5,28.7400
1595.5,19.7600
1596.4,12.7900
1597.4,13.3100
1598.3,22.6900
1599.3,23.8800
1600.3,35.3200
1601.2,30.3500
1602.2,12.3700
1603.1,19.7000
1604.1,13.3200
1605.0,26.8200
1606.0,22.4800
1607.0,29.1200
1607.9,12.3800
1608.9,13.5100
1609.8,5.6700
1610.8,0.0000
1611.7,3.0500
1612.7,0.0000
1613.6,1.2900
1614.6,3.9700
1615.5,0.0000
1616.5,3.5500
1617.4,5.9900
1618.4,6.3400
1619.3,3.2200
1620.3,4.9600
1621.2,0.0000
1622.2,10.5200
1623.1,19.2300
1624.1,6.3200
1625.0,19.2300
1626.0,9.7800
1626.9,0.0000
1627.9,0.0000
1628.8,13.3300
1629.8,0.0000
1630.7,0.0000
1631.7,0.0000
1632.6,0.0000
1633.6,0.0000
1634.5,3.9200
1635.5,5.0100
1636.4,0.0000
1637.3,0.0000
1638.3,0.0000
1639.2,3.4900
1640.2,17.1100
1641.1,0.9700
1642.1,0.0000
1643.0,5.8600
1643.9,5.6300
1644.9,0.0000
1645.8,0.0000
1646.8,0.0000
1647.7,18.1800
1648.7,8.2600
1649.6,0.0000
1650.5,0.0000
1651.5,1.9000
1652.4,14.6900
1653.3,0.0000
1654.3,0.0000
1655.2,0.0000
1656.2,12.9400
1657.1,0.0000
1658.0,0.0000
1659.0,3.2200
1659.9,0.0000
1660.8,16.7100
1661.8,3.0800
1662.7,13.4700
1663.7,4.3300
1664.6,10.6300
1665.5,13.8600
1666.5,11.2600
1667.4,23.0600
1668.3,48.4200
1669.2,62.1700
1670.2,64.2900
1671.1,87.5700
1672.0,109.4300
1673.0,102.8200
1673.9,127.6600
1674.8,151.0800
1675.8,181.1400
1676.7,197.3200
1677.6,214.9900
1678.6,244.4600
1679.5,246.0300
1680.4,263.0600
1681.4,225.5800
1682.3,218.2700
1683.2,247.8800
1684.1,242.0600
1685.1,264.3500
1686.0,282.2300
1686.9,306.0800
1687.8,312.9000
1688.8,339.7900
1689.7,392.0100
1690.6,390.7500
1691.5,402.1500
1692.5,473.2000
1693.4,495.1500
1694.3,563.4400
1695.2,598.2200
1696.2,721.3700
1697.1,805.8000
1698.0,890.3900
1698.9,1044.1900
1699.9,1157.7100
1700.8,1356.4200
1701.7,1573.5700
1702.6,1894.3500
1703.5,2316.0400
1704.5,2763.4400
1705.4,3401.3500
1706.3,4221.9800
1707.2,5066.9200
1708.2,5905.9200
1709.1,6586.5100
1710.0,7198.5800
1710.9,7468.3500
1711.8,7275.4100
1712.8,6999.8600
1713.7,6558.3900
1714.6,5958.1400
1715.5,5517.0800
1716.4,5112.6100
1717.3,4682.8600
1718.2,4318.1400
1719.2,4014.8000
1720.1,3670.9600
1721.0,3308.7700
1721.9,3038.9000
1722.8,2775.4300
1723.7,2460.5900
1724.7,2282.4000
1725.6,2068.3500
1726.5,1801.3200
1727.4,1672.9900
1728.3,1552.1500
1729.2,1369.0700
1730.1,1259.3200
1731.0,1127.6100
1731.9,1082.7000
1732.8,969.2200
1733.8,915.4900
1734.7,875.6900
1735.6,824.8800
1736.5,750.5300
1737.4,734.6800
1738.3,656.9600
1739.2,663.7100
1740.1,624.9800
1741.0,594.0200
1741.9,588.9300
1742.8,570.4600
1743.8,599.2100
1744.7,563.3600
1745.6,578.7500
1746.5,578.3600
1747.4,599.3200
1748.3,624.2800
1749.2,631.0700
1750.1,668.0100
1751.0,702.6500
1751.9,669.7900
1752.8,672.6700
1753.7,626.1800
1754.6,597.9200
1755.5,559.2300
1756.4,477.3200
1757.3,461.6200
1758.2,401.0500
1759.1,354.7800
1760.0,330.0800
1760.9,285.2400
1761.8,218.6100
1762.7,226.6800
1763.6,198.5200
1764.5,183.2000
1765.4,161.3900
1766.3,156.5000
1767.2,110.3400
1768.1,100.5300
1769.0,93.9400
1769.9,82.4700
1770.8,64.4700
1771.7,75.7100
1772.6,56.8600
1773.5,64.0400
1774.4,26.3600
1775.3,38.1300
1776.2,31.1200
1777.1,29.8200
1778.0,3.1100
1778.9,6.0400
1779.8,28.1600
1780.6,0.2000
1781.5,12.5000
1782.4,14.9300
1783.3,10.7700
1784.2,5.7700
1785.1,0.2200
1786.0,0.4500
1786.9,11.4700
1787.8,5.1000
1788.7,10.3200
1789.6,5.5800
1790.5,14.1400
1791.3,12.7100
1792.2,6.2800
1793.1,0.0000
1794.0,10.8900
1794.9,6.0800
1795.8,21.3400
1796.7,1.4400
1797.5,8.4100
1798.4,16.2200
1799.3,25.7300
1800.2,11.6900
1801.1,27.1000
1802.0,19.7700
1802.9,19.1700
1803.8,10.1100
1804.6,12.0200
1805.5,8.0000
1806.4,10.7600
1807.3,2.4700
1808.2,18.8100
1809.0,15.6100
1809.9,10.7000
1810.8,3.2100
1811.7,17.0400
1812.6,8.6800
1813.5,0.0000
1814.3,0.0000
1815.2,0.0000
1816.1,9.5700
1817.0,1.6500
1817.9,3.1600
1818.7,0.0000
1819.6,3.5300
1820.5,0.0000
1821.4,12.3500
1822.2,0.0000
1823.1,0.0000
1824.0,9.5800
1824.9,8.7200
1825.8,7.8600
1826.6,11.3500
1827.5,0.0300
1828.4,9.6100
1829.3,5.2400
1830.1,7.8500
1831.0,1.7200
1831.9,5.2000
1832.8,6.0500
1833.6,7.7800
1834.5,6.8800
1835.4,0.0000
1836.2,8.3800
1837.1,7.2800
1838.0,0.0000
1838.9,5.8800
1839.7,5.6000
1840.6,18.6000
1841.5,18.3200
1842.3,2.9500
1843.2,2.6500
1844.1,0.0000
1845.0,9.1000
1845.8,4.2700
1846.7,0.0000
1847.6,9.4700
1848.4,19.5300
1849.3,8.1000
1850.2,0.0000
1851.0,8.4400
1851.9,0.4700
1852.8,5.0900
1853.6,12.4100
1854.5,7.1300
1855.4,8.1500
1856.2,4.6500
1857.1,6.5700
1858.0,4.8600
1858.8,7.6900
1859.7,0.0000
1860.5,5.1600
1861.4,0.0000
1862.3,7.1300
1863.1,0.0000
1864.0,1.7300
1864.9,10.8800
1865.7,11.8100
1866.6,0.0000
1867.4,6.1400
1868.3,8.7100
1869.2,12.2000
1870.0,8.3300
1870.9,0.0000
1871.7,0.0000
1872.6,7.5800
1873.5,6.3400
1874.3,1.3800
1875.2,1.9800
1876.0,11.8700
1876.9,4.1100
1877.7,8.4300
1878.6,6.2400
1879.5,10.5800
1880.3,6.5100
1881.2,0.0000
1882.0,7.4100
1882.9,0.0000
1883.7,6.0300
1884.6,10.9400
1885.4,13.0300
1886.3,14.1900
1887.2,23.8400
1888.0,15.5600
1888.8,7.2700
1889.7,11.2700
1890.6,12.4300
1891.4,1.2500
1892.3,10.9500
1893.1,13.0700
1894.0,14.2300
1894.8,6.8200
1895.7,8.9400
1896.5,8.1900
1897.4,18.9200
1898.2,10.5200
1899.1,19.3600
1899.9,9.9800
1900.8,11.1500
1901.6,17.1400
1902.5,19.2900
1903.3,24.3300
1904.1,17.7900
1905.0,26.7200
1905.8,13.3900
1906.7,15.5400
1907.5,15.7600
1908.4,15.0000
1909.2,13.2700
1910.1,24.2000
1910.9,13.6900
1911.8,13.9100
1912.6,17.0500
1913.4,16.2900
1914.3,27.2900
1915.1,18.6900
1916.0,17.9200
1916.8,14.2000
1917.7,19.3400
1918.5,23.5100
1919.3,36.5700
1920.2,18.0200
1921.0,25.1700
1921.8,33.3300
1922.7,25.6200
1923.5,30.8200
1924.4,27.0700
1925.2,18.3300
1926.0,32.5200
1926.9,29.7500
1927.7,42.9900
1928.6,35.2200
1929.4,32.4500
1930.2,36.7000
1931.1,27.8900
1931.9,33.1600
1932.7,32.3800
1933.6,32.6200
1934.4,46.9900
1935.2,32.0700
1936.1,32.3100
1936.9,27.4700
1937.7,33.7900
1938.6,36.0600
1939.4,50.5400
1940.2,44.6800
1941.1,53.1000
1941.9,40.0700
1942.7,36.2200
1943.6,46.7000
1944.4,34.6500
1945.2,45.1500
1946.1,41.2900
1946.9,40.5000
1947.7,41.7800
1948.5,54.4100
1949.4,37.1000
1950.2,26.9900
1951.0,46.9000
1951.9,30.5500
1952.7,35.9700
1953.5,36.2100
1954.3,49.9800
1955.2,42.9400
1956.0,50.4900
1956.8,39.2500
1957.7,57.2800
1958.5,46.0200
1959.3,50.4600
1960.1,51.7700
1961.0,41.5000
1961.8,43.8500
1962.6,41.9900
1963.4,44.3400
1964.2,47.7600
1965.1,36.3600
1965.9,39.7800
1966.7,35.7700
1967.5,28.5700
1968.4,42.6300
1969.2,36.4800
1970.0,24.9700
1970.8,24.1300
1971.6,37.1800
1972.5,33.1400
1973.3,38.7300
1974.1,33.6000
1974.9,16.6200
1975.7,23.2900
1976.6,26.7400
1977.4,22.6400
1978.2,21.7800
1979.0,20.9100
1979.8,24.3800
1980.7,23.5100
1981.5,17.2100
1982.3,13.0600
1983.1,12.1700
1983.9,24.3800
1984.7,16.9500
1985.5,14.9700
1986.4,12.9800
1987.2,1.1200
1988.0,12.2900
1988.8,9.1900
1989.6,11.5900
1990.4,16.2000
1991.2,24.1300
1992.0,8.8700
1992.9,21.2500
1993.7,13.7000
1994.5,13.9000
1995.3,0.0000
1996.1,7.6100
1996.9,22.2700
1997.7,18.0100
1998.5,20.4300
1999.3,8.3200
2000.2,10.7400
2001.0,12.0400
2001.8,3.2300
2002.6,15.7700
2003.4,15.9600
2004.2,9.3800
2005.0,20.8500
2005.8,13.1300
2006.6,12.1800
2007.4,7.8200
2008.2,6.8600
2009.0,8.1700
2009.8,0.3800
2010.6,11.9500
2011.5,8.7000
2012.2,2.0200
2013.1,14.7800
2013.9,12.6700
2014.7,12.8500
2015.5,9.5800
2016.3,4.0000
2017.1,12.2400
2017.9,8.9600
2018.7,10.2900
2019.5,15.0900
2020.3,7.1700
2021.1,8.5000
2021.9,7.5100
2022.7,5.3600
2023.5,6.6900
2024.3,12.7000
2025.1,4.7000
2025.9,7.2100
2026.7,9.7200
2027.5,6.3800
2028.3,4.2000
2029.1,6.7200
2029.9,0.0000
2030.7,9.4100
2031.5,7.2100
2032.2,10.9200
2033.0,7.5400
2033.8,7.7000
2034.6,7.8600
2035.4,11.5900
2036.2,2.2300
2037.0,9.5400
2037.8,4.9300
2038.6,0.0000
2039.4,7.5300
2040.2,0.4000
2041.0,6.4500
2041.8,6.5000
2042.6,8.9600
2043.4,7.8200
2044.2,13.9100
2045.0,9.1400
2045.7,0.7200
2046.5,4.4100
2047.3,14.1700
2048.1,8.1600
2048.9,11.8700
2049.7,13.1500
2050.5,9.5500
2051.3,5.9400
2052.1,6.0000
2052.8,8.5000
2053.6,7.3300
2054.4,8.6200
2055.2,4.9900
2056.0,5.0400
2056.8,10.0300
2057.6,12.5600
2058.3,6.4400
2059.1,10.2100
2059.9,9.0300
2060.7,14.0600
2061.5,4.1700
2062.3,6.7200
2063.1,6.7700
2063.8,13.0800
2064.6,6.8800
2065.4,13.2100
2066.2,4.4900
2067.0,13.3400
2067.8,2.0700
2068.5,15.9900
2069.3,13.5400
2070.1,6.0200
2070.9,9.8700
2071.7,15.0100
2072.4,0.0000
2073.2,7.5000
2074.0,7.5500
2074.8,11.4300
2075.6,5.1000
2076.3,7.7000
2077.1,9.0300
2077.9,2.6700
2078.7,7.8500
2079.4,13.0500
2080.2,6.6600
2081.0,6.7100
2081.8,18.3900
2082.6,15.8700
2083.3,22.4100
2084.1,6.9100
2084.9,10.8600
2085.7,14.8100
2086.4,8.3600
2087.2,21.4600
2088.0,17.6100
2088.7,11.1300
2089.5,5.9400
2090.3,5.9900
2091.1,15.2400
2091.8,0.0000
2092.6,8.6800
2093.4,8.6400
2094.1,12.5700
2094.9,5.9200
2095.7,19.1400
2096.4,23.1000
2097.2,15.1000
2098.0,16.4000
2098.8,11.0400
2099.5,20.3600
2100.3,17.6600
2101.1,24.3400
2101.8,16.2700
2102.6,20.2800
2103.4,18.9100
2104.1,28.3200
2104.9,25.6200
2105.7,24.2600
2106.4,37.7800
2107.2,13.3900
2108.0,24.2200
2108.7,28.2800
2109.5,31.0000
2110.3,33.7200
2111.0,33.7300
2111.8,32.3600
2112.6,35.1000
2113.3,35.1100
2114.1,51.5900
2114.8,43.3700
2115.6,29.6100
2116.4,43.4000
2117.1,46.1900
2117.9,55.8900
2118.7,54.5400
2119.4,44.8700
2120.2,53.2300
2120.9,57.4300
2121.7,54.6900
2122.4,39.3700
2123.2,60.3500
2124.0,49.2000
2124.7,53.4300
2125.5,57.6800
2126.2,64.7500
2127.0,46.5000
2127.8,64.8600
2128.5,57.8500
2129.3,59.3100
2130.0,52.2700
2130.8,53.7300
2131.5,33.8700
2132.3,49.5300
2133.0,41.0100
2133.8,36.7500
2134.6,48.2000
2135.3,43.9400
2136.1,35.3600
2136.8,38.2400
2137.6,38.2600
2138.3,29.6300
2139.1,36.8500
2139.8,44.0900
2140.6,32.5400
2141.3,38.3500
2142.1,42.7200
2142.8,25.3000
2143.6,32.5800
2144.3,29.6700
2145.1,39.9000
2145.8,26.7600
2146.6,20.9100
2147.3,29.7000
2148.1,29.7100
2148.8,20.8900
2149.6,35.6100
2150.3,28.2500
2151.1,34.1700
2151.8,28.2600
2152.6,32.7200
2153.3,28.2700
2154.1,25.3100
2154.8,22.3300
2155.5,31.2800
2156.3,19.3400
2157.0,19.3300
2157.8,11.8400
2158.5,17.8200
2159.3,14.8100
2160.0,17.8000
2160.8,16.2900
2161.5,14.7700
2162.2,20.8100
2163.0,11.7200
2163.7,26.8700
2164.5,14.7200
2165.2,31.4500
2165.9,14.7000
2166.7,8.5900
2167.4,17.7400
2168.2,7.0200
2168.9,11.5900
2169.6,31.5400
2170.4,23.8700
2171.1,23.8700
2171.9,25.4200
2172.6,25.4300
2173.3,16.1500
2174.1,20.7900
2174.8,11.4800
2175.6,28.5700
2176.3,20.8000
2177.0,20.8000
2177.8,9.8700
2178.5,27.0600
2179.2,22.3700
2180.0,14.5300
2180.7,14.5200
2181.4,28.6800
2182.2,38.1600
2182.9,47.6600
2183.6,41.3800
2184.4,36.6700
2185.1,39.8700
2185.8,28.7800
2186.6,36.7500
2187.3,28.8100
2188.0,20.8500
2188.8,32.0500
2189.5,35.2700
2190.2,40.1100
2190.9,28.9000
2191.7,19.2700
2192.4,27.3300
2193.1,24.1200
2193.9,22.5100
2194.6,27.3800
2195.3,22.5300
2196.1,19.2900
2196.8,27.4300
2197.5,27.4500
2198.2,29.1000
2199.0,24.2200
2199.7,24.2300
2200.4,19.3300
2201.2,30.8300
2201.9,22.6300
2202.6,14.4100
2203.3,19.3600
2204.1,14.4100
2204.8,19.3700
2205.5,21.0400
2206.2,19.3900
2206.9,27.7100
2207.7,17.7400
2208.4,14.4100
2209.1,21.1000
2209.8,24.4600
2210.6,16.0900
2211.3,26.1700
2212.0,4.3300
2212.7,21.1600
2213.4,19.4800
2214.2,26.2600
2214.9,29.6600
2215.6,22.9100
2216.3,22.9300
2217.0,22.9400
2217.8,26.3700
2218.5,17.8600
2219.2,26.4100
2219.9,26.4400
2220.6,21.3200
2221.3,35.0700
2222.1,31.6700
2222.8,23.0900
2223.5,36.9200
2224.2,31.7700
2224.9,33.5400
2225.7,49.1800
2226.4,44.0300
2227.1,37.1300
2227.8,45.8900
2228.5,40.7100
2229.2,35.5100
2229.9,39.0600
2230.7,39.1100
2231.4,30.3700
2232.1,42.7200
2232.8,46.3000
2233.5,25.1800
2234.2,39.3500
2234.9,39.4000
2235.6,25.2600
2236.3,46.6100
2237.1,46.6700
2237.8,27.1300
2238.5,32.5100
2239.2,28.9800
2239.9,48.7200
2240.6,32.6300
2241.3,38.0700
2242.0,59.7200
2242.7,36.3700
2243.4,40.0300
2244.1,23.8000
2244.8,20.2000
2245.6,45.6400
2246.3,34.7900
2247.0,23.9100
2247.7,23.9400
2248.4,27.6200
2249.1,16.6800
2249.8,38.6900
2250.5,11.2100
2251.2,38.8000
2251.9,27.8100
2252.6,33.3800
2253.3,53.7600
2254.0,35.3200
2254.7,37.2300
2255.4,27.9900
2256.1,33.6200
2256.8,31.8000
2257.5,37.4500
2258.2,48.7200
2258.9,30.0600
2259.6,24.4800
2260.3,43.3100
2261.0,24.5500
2261.7,26.4700
2262.4,51.0600
2263.1,45.4600
2263.8,51.2200
2264.5,38.0100
2265.2,28.5700
2265.9,30.5100
2266.6,42.0100
2267.3,21.0500
2268.0,34.4800
2268.7,44.1200
2269.4,26.9100
2270.1,36.5700
2270.8,36.6300
2271.5,38.6200
2272.2,52.2100
2272.9,27.1200
2273.6,42.6900
2274.3,17.4900
2275.0,36.9900
2275.7,33.1500
2276.3,41.0100
2277.1,25.4300
2277.7,45.0700
2278.4,29.4400
2279.1,35.3900
2279.8,41.3600
2280.5,31.5600
2281.2,35.5700
2281.9,37.6100
2282.6,51.5600
2283.3,33.7700
2284.0,39.8000
2284.7,29.9000
2285.3,39.9400
2286.0,26.0100
2286.7,28.0600
2287.4,32.1200
2288.1,28.1600
2288.8,44.3200
2289.5,38.3400
2290.2,36.3900
2290.8,32.4100
2291.5,38.5500
2292.2,60.9600
2292.9,36.6600
2293.6,46.9100
2294.3,28.6300
2295.0,40.9500
2295.6,51.2700
2296.3,32.8900
2297.0,37.0700
2297.7,37.1400
2298.4,28.9600
2299.1,43.4800
2299.8,45.6300
2300.4,49.8600
2301.1,54.1000
2301.8,43.8000
2302.5,50.1400
2303.2,35.6200
2303.8,54.5100
2304.5,54.6100
2305.2,54.7200
2305.9,42.2100
2306.6,46.5000
2307.2,44.4800
2307.9,46.6800
2308.6,36.1900
2309.3,34.1400
2310.0,19.3400
2310.6,44.9200
2311.3,51.4000
2312.0,64.3100
2312.7,36.6300
2313.3,55.9900
2314.0,38.9300
2314.7,13.2100
2315.4,11.0900
2316.1,26.2200
2316.7,24.1200
2317.4,28.5100
2318.1,37.2400
2318.8,35.1500
2319.4,19.9900
2320.1,33.1200
2320.8,15.7200
2321.4,28.8900
2322.1,20.1900
2322.8,33.4100
2323.5,31.2800
2324.1,29.1500
2324.8,27.0100
2325.5,35.9200
2326.2,22.7100
2326.8,31.6400
2327.5,33.9300
2328.2,40.6900
2328.8,31.8600
2329.5,34.1700
2330.2,36.4800
2330.8,32.0800
2331.5,45.6300
2332.2,50.2300
2332.8,52.5900
2333.5,50.4500
2334.2,32.4600
2334.8,25.7300
2335.5,14.4500
2336.2,32.6900
2336.8,7.7000
2337.5,14.5800
2338.2,21.4900
2338.8,14.6800
2339.5,5.5400
2340.2,21.6700
2340.8,0.0000
2341.5,30.9500
2342.2,17.1000
2342.8,12.4500
2343.5,26.3500
2344.2,10.0900
2344.8,24.0300
2345.5,12.3700
2346.2,17.0300
2346.8,28.7200
2347.5,5.2800
2348.1,9.9500
2348.8,7.5700
2349.5,0.0000
2350.1,21.2200
2350.8,16.0200
2351.4,6.0600
2352.1,12.6900
