Pixel,Wavelength,Wavenumber,Processed
0,810.44,400.00,3.40
1,810.50,401.00,4.94
2,810.57,402.00,0.63
3,810.64,403.00,7.39
4,810.70,404.00,28.88
5,810.77,405.00,17.41
6,810.83,406.00,45.07
7,810.90,407.00,20.97
8,810.96,408.00,30.85
9,811.03,409.00,25.01
10,811.10,410.00,23.10
11,811.16,411.00,10.40
12,811.23,412.00,14.40
13,811.29,413.00,18.32
14,811.36,414.00,12.82
15,811.42,415.00,0.00
16,811.49,416.00,0.86
17,811.56,417.00,10.98
18,811.62,418.00,12.01
19,811.69,419.00,9.79
20,811.75,420.00,33.54
21,811.82,421.00,20.30
22,811.89,422.00,36.08
23,811.95,423.00,11.29
24,812.02,424.00,27.05
25,812.08,425.00,0.86
26,812.15,426.00,9.34
27,812.22,427.00,5.82
28,812.28,428.00,7.03
29,812.35,429.00,0.63
30,812.41,430.00,8.47
31,812.48,431.00,0.65
32,812.55,432.00,8.61
33,812.61,433.00,3.59
34,812.68,434.00,3.26
35,812.74,435.00,10.26
36,812.81,436.00,22.73
37,812.88,437.00,8.40
38,812.94,438.00,15.63
39,813.01,439.00,6.57
40,813.07,440.00,2.70
41,813.14,441.00,2.95
42,813.21,442.00,0.89
43,813.27,443.00,0.00
44,813.34,444.00,0.00
45,813.40,445.00,4.38
46,813.47,446.00,1.07
47,813.54,447.00,0.51
48,813.60,448.00,0.00
49,813.67,449.00,0.30
50,813.74,450.00,0.58
51,813.80,451.00,1.17
52,813.87,452.00,3.04
53,813.93,453.00,7.04
54,814.00,454.00,14.72
55,814.07,455.00,9.56
56,814.13,456.00,8.22
57,814.20,457.00,17.47
58,814.27,458.00,23.12
59,814.33,459.00,6.59
60,814.40,460.00,25.17
61,814.46,461.00,49.11
62,814.53,462.00,21.06
63,814.60,463.00,21.36
64,814.66,464.00,4.93
65,814.73,465.00,12.67
66,814.80,466.00,29.26
67,814.86,467.00,11.28
68,814.93,468.00,25.36
69,815.00,469.00,11.18
70,815.06,470.00,30.08
71,815.13,471.00,9.78
72,815.20,472.00,30.21
73,815.26,473.00,1.93
74,815.33,474.00,22.76
75,815.39,475.00,9.17
76,815.46,476.00,28.12
77,815.53,477.00,19.50
78,815.59,478.00,21.24
79,815.66,479.00,5.90
80,815.73,480.00,8.91
81,815.79,481.00,0.68
82,815.86,482.00,7.98
83,815.93,483.00,6.41
84,815.99,484.00,18.65
85,816.06,485.00,3.01
86,816.13,486.00,26.12
87,816.19,487.00,5.60
88,816.26,488.00,17.07
89,816.33,489.00,5.53
90,816.39,490.00,2.48
91,816.46,491.00,0.00
92,816.53,492.00,1.08
93,816.59,493.00,7.45
94,816.66,494.00,3.02
95,816.73,495.00,0.00
96,816.79,496.00,0.00
97,816.86,497.00,0.16
98,816.93,498.00,0.23
99,816.99,499.00,0.00
100,817.06,500.00,1.70
101,817.13,501.00,1.40
102,817.19,502.00,5.59
103,817.26,503.00,2.03
104,817.33,504.00,0.99
105,817.39,505.00,7.58
106,817.46,506.00,11.15
107,817.53,507.00,0.00
108,817.59,508.00,16.56
109,817.66,509.00,39.11
110,817.73,510.00,21.27
111,817.80,511.00,10.92
112,817.86,512.00,0.00
113,817.93,513.00,23.36
114,818.00,514.00,39.50
115,818.06,515.00,21.47
116,818.13,516.00,24.13
117,818.20,517.00,14.43
118,818.26,518.00,25.70
119,818.33,519.00,5.67
120,818.40,520.00,16.04
121,818.46,521.00,0.39
122,818.53,522.00,14.86
123,818.60,523.00,5.05
124,818.67,524.00,16.10
125,818.73,525.00,19.22
126,818.80,526.00,15.60
127,818.87,527.00,7.58
128,818.93,528.00,7.89
129,819.00,529.00,3.80
130,819.07,530.00,11.71
131,819.14,531.00,5.51
132,819.20,532.00,8.61
133,819.27,533.00,5.37
134,819.34,534.00,15.15
135,819.40,535.00,3.18
136,819.47,536.00,14.75
137,819.54,537.00,13.81
138,819.60,538.00,18.84
139,819.67,539.00,30.22
140,819.74,540.00,25.82
141,819.81,541.00,36.97
142,819.87,542.00,20.82
143,819.94,543.00,22.43
144,820.01,544.00,6.22
145,820.08,545.00,27.94
146,820.14,546.00,30.26
147,820.21,547.00,25.16
148,820.28,548.00,27.47
149,820.34,549.00,32.49
150,820.41,550.00,36.82
151,820.48,551.00,38.36
152,820.55,552.00,24.07
153,820.61,553.00,54.81
154,820.68,554.00,55.68
155,820.75,555.00,60.39
156,820.82,556.00,53.67
157,820.88,557.00,80.66
158,820.95,558.00,39.70
159,821.02,559.00,27.94
160,821.09,560.00,25.45
161,821.15,561.00,48.13
162,821.22,562.00,47.47
163,821.29,563.00,34.21
164,821.36,564.00,34.66
165,821.42,565.00,62.78
166,821.49,566.00,41.94
167,821.56,567.00,44.22
168,821.63,568.00,52.50
169,821.69,569.00,76.90
170,821.76,570.00,80.59
171,821.83,571.00,80.53
172,821.90,572.00,93.72
173,821.96,573.00,160.49
174,822.03,574.00,134.76
175,822.10,575.00,95.91
176,822.17,576.00,132.21
177,822.23,577.00,158.60
178,822.30,578.00,153.74
179,822.37,579.00,127.67
180,822.44,580.00,123.73
181,822.50,581.00,184.85
182,822.57,582.00,137.20
183,822.64,583.00,121.18
184,822.71,584.00,124.07
185,822.77,585.00,110.24
186,822.84,586.00,113.77
187,822.91,587.00,83.68
188,822.98,588.00,73.89
189,823.05,589.00,94.53
190,823.11,590.00,75.03
191,823.18,591.00,31.78
192,823.25,592.00,51.13
193,823.32,593.00,54.10
194,823.38,594.00,58.83
195,823.45,595.00,24.34
196,823.52,596.00,47.13
197,823.59,597.00,39.24
198,823.66,598.00,45.72
199,823.72,599.00,39.36
200,823.79,600.00,43.90
201,823.86,601.00,46.87
202,823.93,602.00,65.96
203,823.99,603.00,56.68
204,824.06,604.00,92.05
205,824.13,605.00,111.35
206,824.20,606.00,112.41
207,824.27,607.00,77.98
208,824.33,608.00,88.51
209,824.40,609.00,83.90
210,824.47,610.00,96.69
211,824.54,611.00,57.75
212,824.61,612.00,61.32
213,824.67,613.00,72.41
214,824.74,614.00,75.09
215,824.81,615.00,51.41
216,824.88,616.00,73.15
217,824.95,617.00,68.23
218,825.01,618.00,72.39
219,825.08,619.00,65.75
220,825.15,620.00,96.07
221,825.22,621.00,85.46
222,825.29,622.00,130.60
223,825.35,623.00,80.53
224,825.42,624.00,88.87
225,825.49,625.00,79.89
226,825.56,626.00,90.50
227,825.63,627.00,68.63
228,825.70,628.00,61.53
229,825.76,629.00,46.11
230,825.83,630.00,96.00
231,825.90,631.00,47.93
232,825.97,632.00,94.04
233,826.04,633.00,41.20
234,826.10,634.00,81.08
235,826.17,635.00,50.85
236,826.24,636.00,43.82
237,826.31,637.00,21.55
238,826.38,638.00,26.01
239,826.45,639.00,26.16
240,826.51,640.00,26.15
241,826.58,641.00,20.70
242,826.65,642.00,33.73
243,826.72,643.00,10.87
244,826.79,644.00,34.18
245,826.86,645.00,26.86
246,826.92,646.00,41.18
247,826.99,647.00,23.72
248,827.06,648.00,43.37
249,827.13,649.00,18.53
250,827.20,650.00,41.31
251,827.27,651.00,59.14
252,827.34,652.00,42.09
253,827.40,653.00,40.85
254,827.47,654.00,36.31
255,827.54,655.00,70.50
256,827.61,656.00,67.49
257,827.68,657.00,60.48
258,827.75,658.00,91.24
259,827.81,659.00,68.85
260,827.88,660.00,114.53
261,827.95,661.00,125.03
262,828.02,662.00,140.89
263,828.09,663.00,147.18
264,828.16,664.00,130.22
265,828.23,665.00,126.61
266,828.29,666.00,114.34
267,828.36,667.00,197.77
268,828.43,668.00,133.11
269,828.50,669.00,107.08
270,828.57,670.00,112.73
271,828.64,671.00,131.86
272,828.71,672.00,87.18
273,828.78,673.00,89.20
274,828.84,674.00,114.20
275,828.91,675.00,81.75
276,828.98,676.00,114.23
277,829.05,677.00,96.53
278,829.12,678.00,140.13
279,829.19,679.00,73.85
280,829.26,680.00,99.80
281,829.32,681.00,110.28
282,829.39,682.00,147.64
283,829.46,683.00,155.51
284,829.53,684.00,173.63
285,829.60,685.00,100.88
286,829.67,686.00,103.84
287,829.74,687.00,97.70
288,829.81,688.00,96.71
289,829.88,689.00,56.57
290,829.94,690.00,71.61
291,830.01,691.00,36.62
292,830.08,692.00,40.29
293,830.15,693.00,41.33
294,830.22,694.00,34.45
295,830.29,695.00,29.66
296,830.36,696.00,37.50
297,830.43,697.00,38.40
298,830.50,698.00,45.97
299,830.56,699.00,51.66
300,830.63,700.00,72.07
301,830.70,701.00,103.59
302,830.77,702.00,147.83
303,830.84,703.00,245.72
304,830.91,704.00,386.58
305,830.98,705.00,602.11
306,831.05,706.00,982.12
307,831.12,707.00,1579.67
308,831.19,708.00,2387.79
309,831.26,709.00,3573.03
310,831.32,710.00,4837.78
311,831.39,711.00,6016.99
312,831.46,712.00,7610.58
313,831.53,713.00,8167.63
314,831.60,714.00,8815.61
315,831.67,715.00,8049.73
316,831.74,716.00,7433.55
317,831.81,717.00,5877.25
318,831.88,718.00,4561.93
319,831.95,719.00,3183.18
320,832.02,720.00,2230.66
321,832.09,721.00,1384.14
322,832.15,722.00,958.45
323,832.22,723.00,601.62
324,832.29,724.00,362.31
325,832.36,725.00,248.88
326,832.43,726.00,157.09
327,832.50,727.00,109.30
328,832.57,728.00,80.37
329,832.64,729.00,68.87
330,832.71,730.00,52.52
331,832.78,731.00,46.85
332,832.85,732.00,41.42
333,832.92,733.00,49.17
334,832.99,734.00,54.01
335,833.06,735.00,52.94
336,833.13,736.00,67.05
337,833.19,737.00,91.50
338,833.26,738.00,107.90
339,833.33,739.00,141.28
340,833.40,740.00,182.57
341,833.47,741.00,231.54
342,833.54,742.00,227.57
343,833.61,743.00,210.81
344,833.68,744.00,174.47
345,833.75,745.00,212.58
346,833.82,746.00,167.22
347,833.89,747.00,196.80
348,833.96,748.00,113.58
349,834.03,749.00,82.07
350,834.10,750.00,65.27
351,834.17,751.00,41.14
352,834.24,752.00,50.56
353,834.31,753.00,62.54
354,834.38,754.00,50.83
355,834.45,755.00,93.36
356,834.52,756.00,48.81
357,834.59,757.00,12.01
358,834.65,758.00,61.83
359,834.72,759.00,12.92
360,834.79,760.00,77.85
361,834.86,761.00,62.91
362,834.93,762.00,72.65
363,835.00,763.00,42.35
364,835.07,764.00,61.91
365,835.14,765.00,46.50
366,835.21,766.00,102.68
367,835.28,767.00,85.49
368,835.35,768.00,120.97
369,835.42,769.00,107.71
370,835.49,770.00,92.87
371,835.56,771.00,72.67
372,835.63,772.00,37.56
373,835.70,773.00,74.51
374,835.77,774.00,88.21
375,835.84,775.00,15.01
376,835.91,776.00,56.46
377,835.98,777.00,66.92
378,836.05,778.00,44.80
379,836.12,779.00,2.24
380,836.19,780.00,22.01
381,836.26,781.00,37.24
382,836.33,782.00,36.57
383,836.40,783.00,31.86
384,836.47,784.00,34.98
385,836.54,785.00,42.43
386,836.61,786.00,36.62
387,836.68,787.00,59.45
388,836.75,788.00,72.34
389,836.82,789.00,53.64
390,836.89,790.00,67.72
391,836.96,791.00,73.49
392,837.03,792.00,91.00
393,837.10,793.00,127.68
394,837.17,794.00,107.27
395,837.24,795.00,63.99
396,837.31,796.00,94.66
397,837.38,797.00,87.08
398,837.45,798.00,79.05
399,837.52,799.00,52.31
400,837.59,800.00,69.11
401,837.66,801.00,54.27
402,837.73,802.00,51.03
403,837.80,803.00,61.63
404,837.87,804.00,70.09
405,837.94,805.00,43.11
406,838.01,806.00,49.61
407,838.08,807.00,80.05
408,838.15,808.00,73.25
409,838.22,809.00,85.21
410,838.29,810.00,67.45
411,838.36,811.00,88.11
412,838.43,812.00,81.36
413,838.50,813.00,128.70
414,838.57,814.00,85.60
415,838.64,815.00,91.72
416,838.72,816.00,80.84
417,838.79,817.00,56.94
418,838.86,818.00,84.29
419,838.93,819.00,79.13
420,839.00,820.00,72.72
421,839.07,821.00,70.44
422,839.14,822.00,37.81
423,839.21,823.00,69.12
424,839.28,824.00,55.16
425,839.35,825.00,66.98
426,839.42,826.00,67.00
427,839.49,827.00,103.16
428,839.56,828.00,119.86
429,839.63,829.00,120.37
430,839.70,830.00,104.59
431,839.77,831.00,79.18
432,839.84,832.00,60.79
433,839.91,833.00,74.92
434,839.98,834.00,88.44
435,840.05,835.00,99.83
436,840.12,836.00,108.60
437,840.19,837.00,130.16
438,840.27,838.00,107.29
439,840.34,839.00,152.26
440,840.41,840.00,126.73
441,840.48,841.00,128.09
442,840.55,842.00,138.52
443,840.62,843.00,137.97
444,840.69,844.00,144.20
445,840.76,845.00,132.42
446,840.83,846.00,87.78
447,840.90,847.00,49.19
448,840.97,848.00,34.48
449,841.04,849.00,51.01
450,841.11,850.00,48.24
451,841.18,851.00,42.84
452,841.26,852.00,36.95
453,841.33,853.00,58.73
454,841.40,854.00,50.50
455,841.47,855.00,41.48
456,841.54,856.00,53.69
457,841.61,857.00,67.27
458,841.68,858.00,89.72
459,841.75,859.00,73.62
460,841.82,860.00,98.41
461,841.89,861.00,135.43
462,841.96,862.00,98.35
463,842.03,863.00,98.99
464,842.11,864.00,64.86
465,842.18,865.00,86.26
466,842.25,866.00,85.07
467,842.32,867.00,42.10
468,842.39,868.00,29.55
469,842.46,869.00,18.76
470,842.53,870.00,6.73
471,842.60,871.00,2.30
472,842.67,872.00,0.62
473,842.74,873.00,0.12
474,842.82,874.00,0.06
475,842.89,875.00,0.00
476,842.96,876.00,0.00
477,843.03,877.00,0.00
478,843.10,878.00,0.00
479,843.17,879.00,0.00
480,843.24,880.00,0.00
481,843.31,881.00,0.00
482,843.38,882.00,0.00
483,843.45,883.00,0.00
484,843.53,884.00,0.00
485,843.60,885.00,0.00
486,843.67,886.00,0.00
487,843.74,887.00,0.00
488,843.81,888.00,0.01
489,843.88,889.00,0.00
490,843.95,890.00,0.05
491,844.02,891.00,0.00
492,844.10,892.00,2.93
493,844.17,893.00,19.69
494,844.24,894.00,16.36
495,844.31,895.00,42.48
496,844.38,896.00,25.57
497,844.45,897.00,0.00
498,844.52,898.00,26.31
499,844.59,899.00,49.36
500,844.67,900.00,38.40
501,844.74,901.00,23.69
502,844.81,902.00,21.95
503,844.88,903.00,0.15
504,844.95,904.00,5.81
505,845.02,905.00,0.00
506,845.09,906.00,0.00
507,845.17,907.00,3.41
508,845.24,908.00,0.00
509,845.31,909.00,2.59
510,845.38,910.00,1.29
511,845.45,911.00,0.00
512,845.52,912.00,0.00
513,845.59,913.00,16.56
514,845.67,914.00,8.18
515,845.74,915.00,7.47
516,845.81,916.00,10.69
517,845.88,917.00,3.26
518,845.95,918.00,29.46
519,846.02,919.00,0.00
520,846.10,920.00,3.72
521,846.17,921.00,0.00
522,846.24,922.00,0.00
523,846.31,923.00,0.00
524,846.38,924.00,0.00
525,846.45,925.00,20.69
526,846.53,926.00,65.46
527,846.60,927.00,0.00
528,846.67,928.00,21.92
529,846.74,929.00,71.69
530,846.81,930.00,0.18
531,846.88,931.00,6.21
532,846.96,932.00,0.00
533,847.03,933.00,11.95
534,847.10,934.00,35.18
535,847.17,935.00,0.00
536,847.24,936.00,8.50
537,847.31,937.00,2.41
538,847.39,938.00,0.00
539,847.46,939.00,0.00
540,847.53,940.00,0.00
541,847.60,941.00,0.00
542,847.67,942.00,0.59
543,847.75,943.00,0.00
544,847.82,944.00,0.00
545,847.89,945.00,29.13
546,847.96,946.00,29.57
547,848.03,947.00,0.00
548,848.10,948.00,0.00
549,848.18,949.00,21.38
550,848.25,950.00,16.62
551,848.32,951.00,0.00
552,848.39,952.00,10.27
553,848.46,953.00,0.00
554,848.54,954.00,1.46
555,848.61,955.00,0.00
556,848.68,956.00,0.00
557,848.75,957.00,0.00
558,848.82,958.00,0.17
559,848.90,959.00,0.05
560,848.97,960.00,0.00
561,849.04,961.00,0.00
562,849.11,962.00,0.23
563,849.18,963.00,0.00
564,849.26,964.00,1.12
565,849.33,965.00,1.22
566,849.40,966.00,2.32
567,849.47,967.00,10.52
568,849.55,968.00,0.00
569,849.62,969.00,17.77
570,849.69,970.00,27.38
571,849.76,971.00,47.17
572,849.83,972.00,75.41
573,849.91,973.00,55.25
574,849.98,974.00,94.68
575,850.05,975.00,131.22
576,850.12,976.00,9.44
577,850.20,977.00,27.38
578,850.27,978.00,47.99
579,850.34,979.00,27.47
580,850.41,980.00,49.34
581,850.48,981.00,26.87
582,850.56,982.00,38.12
583,850.63,983.00,31.44
584,850.70,984.00,33.18
585,850.77,985.00,50.56
586,850.85,986.00,50.78
587,850.92,987.00,93.80
588,850.99,988.00,96.95
589,851.06,989.00,53.57
590,851.14,990.00,154.61
591,851.21,991.00,148.63
592,851.28,992.00,127.69
593,851.35,993.00,93.05
594,851.43,994.00,138.14
595,851.50,995.00,121.14
596,851.57,996.00,108.54
597,851.64,997.00,107.92
598,851.72,998.00,130.70
599,851.79,999.00,100.52
600,851.86,1000.00,131.17
601,851.93,1001.00,131.39
602,852.01,1002.00,139.37
603,852.08,1003.00,143.16
604,852.15,1004.00,184.34
605,852.22,1005.00,196.82
606,852.30,1006.00,245.50
607,852.37,1007.00,301.30
608,852.44,1008.00,417.61
609,852.51,1009.00,445.37
610,852.59,1010.00,532.30
611,852.66,1011.00,726.89
612,852.73,1012.00,734.31
613,852.81,1013.00,732.61
614,852.88,1014.00,685.12
615,852.95,1015.00,570.94
616,853.02,1016.00,449.31
617,853.10,1017.00,353.36
618,853.17,1018.00,197.81
619,853.24,1019.00,151.62
620,853.32,1020.00,82.22
621,853.39,1021.00,55.61
622,853.46,1022.00,35.12
623,853.53,1023.00,23.02
624,853.61,1024.00,17.10
625,853.68,1025.00,16.03
626,853.75,1026.00,16.83
627,853.83,1027.00,20.60
628,853.90,1028.00,29.56
629,853.97,1029.00,45.72
630,854.04,1030.00,99.70
631,854.12,1031.00,203.86
632,854.19,1032.00,410.95
633,854.26,1033.00,940.21
634,854.34,1034.00,2045.23
635,854.41,1035.00,4217.64
636,854.48,1036.00,8211.38
637,854.55,1037.00,15053.21
638,854.63,1038.00,25223.59
639,854.70,1039.00,38562.97
640,854.77,1040.00,53060.99
641,854.85,1041.00,65392.99
642,854.92,1042.00,72872.36
643,854.99,1043.00,73599.38
644,855.07,1044.00,68654.34
645,855.14,1045.00,58407.31
646,855.21,1046.00,47320.25
647,855.29,1047.00,35426.86
648,855.36,1048.00,26429.28
649,855.43,1049.00,18717.97
650,855.51,1050.00,13391.64
651,855.58,1051.00,9574.95
652,855.65,1052.00,7078.00
653,855.72,1053.00,5466.08
654,855.80,1054.00,4323.79
655,855.87,1055.00,3627.35
656,855.94,1056.00,3269.40
657,856.02,1057.00,3085.94
658,856.09,1058.00,2927.02
659,856.16,1059.00,3058.57
660,856.24,1060.00,3261.55
661,856.31,1061.00,3367.37
662,856.38,1062.00,3774.77
663,856.46,1063.00,3929.58
664,856.53,1064.00,4224.70
665,856.60,1065.00,4265.37
666,856.68,1066.00,4131.90
667,856.75,1067.00,3892.31
668,856.82,1068.00,3384.32
669,856.90,1069.00,2652.11
670,856.97,1070.00,2285.14
671,857.04,1071.00,1857.40
672,857.12,1072.00,1336.56
673,857.19,1073.00,997.52
674,857.27,1074.00,787.53
675,857.34,1075.00,598.78
676,857.41,1076.00,481.35
677,857.49,1077.00,377.29
678,857.56,1078.00,298.21
679,857.63,1079.00,277.14
680,857.71,1080.00,269.48
681,857.78,1081.00,249.38
682,857.85,1082.00,265.15
683,857.93,1083.00,266.92
684,858.00,1084.00,279.15
685,858.07,1085.00,275.43
686,858.15,1086.00,307.71
687,858.22,1087.00,329.55
688,858.30,1088.00,350.16
689,858.37,1089.00,356.58
690,858.44,1090.00,312.98
691,858.52,1091.00,282.82
692,858.59,1092.00,211.96
693,858.66,1093.00,185.52
694,858.74,1094.00,180.45
695,858.81,1095.00,164.07
696,858.89,1096.00,141.94
697,858.96,1097.00,143.51
698,859.03,1098.00,132.33
699,859.11,1099.00,109.40
700,859.18,1100.00,81.54
701,859.25,1101.00,93.71
702,859.33,1102.00,114.83
703,859.40,1103.00,155.38
704,859.48,1104.00,162.18
705,859.55,1105.00,154.94
706,859.62,1106.00,169.28
707,859.70,1107.00,111.09
708,859.77,1108.00,93.29
709,859.85,1109.00,53.31
710,859.92,1110.00,71.81
711,859.99,1111.00,59.18
712,860.07,1112.00,36.22
713,860.14,1113.00,27.10
714,860.22,1114.00,25.09
715,860.29,1115.00,2.81
716,860.36,1116.00,12.97
717,860.44,1117.00,7.73
718,860.51,1118.00,23.05
719,860.59,1119.00,7.79
720,860.66,1120.00,8.83
721,860.73,1121.00,4.85
722,860.81,1122.00,4.02
723,860.88,1123.00,3.05
724,860.96,1124.00,0.00
725,861.03,1125.00,1.91
726,861.10,1126.00,8.87
727,861.18,1127.00,6.91
728,861.25,1128.00,12.99
729,861.33,1129.00,16.47
730,861.40,1130.00,25.63
731,861.47,1131.00,0.00
732,861.55,1132.00,0.00
733,861.62,1133.00,1.81
734,861.70,1134.00,43.02
735,861.77,1135.00,20.66
736,861.85,1136.00,57.34
737,861.92,1137.00,48.18
738,861.99,1138.00,22.71
739,862.07,1139.00,20.87
740,862.14,1140.00,26.15
741,862.22,1141.00,55.37
742,862.29,1142.00,44.96
743,862.37,1143.00,29.16
744,862.44,1144.00,36.60
745,862.52,1145.00,0.00
746,862.59,1146.00,20.06
747,862.66,1147.00,14.01
748,862.74,1148.00,29.44
749,862.81,1149.00,24.06
750,862.89,1150.00,28.85
751,862.96,1151.00,59.58
752,863.04,1152.00,40.59
753,863.11,1153.00,19.36
754,863.19,1154.00,14.65
755,863.26,1155.00,77.56
756,863.33,1156.00,45.15
757,863.41,1157.00,51.05
758,863.48,1158.00,7.61
759,863.56,1159.00,29.37
760,863.63,1160.00,21.50
761,863.71,1161.00,22.56
762,863.78,1162.00,25.04
763,863.86,1163.00,25.54
764,863.93,1164.00,18.79
765,864.01,1165.00,5.94
766,864.08,1166.00,18.30
767,864.15,1167.00,5.98
768,864.23,1168.00,30.18
769,864.30,1169.00,16.67
770,864.38,1170.00,20.59
771,864.45,1171.00,12.14
772,864.53,1172.00,23.29
773,864.60,1173.00,13.29
774,864.68,1174.00,7.14
775,864.75,1175.00,0.00
776,864.83,1176.00,25.48
777,864.90,1177.00,15.08
778,864.98,1178.00,21.86
779,865.05,1179.00,31.61
780,865.13,1180.00,54.45
781,865.20,1181.00,9.60
782,865.28,1182.00,34.62
783,865.35,1183.00,44.05
784,865.43,1184.00,29.06
785,865.50,1185.00,43.29
786,865.58,1186.00,32.52
787,865.65,1187.00,36.52
788,865.73,1188.00,40.56
789,865.80,1189.00,39.31
790,865.88,1190.00,0.00
791,865.95,1191.00,13.02
792,866.03,1192.00,18.35
793,866.10,1193.00,40.07
794,866.18,1194.00,25.69
795,866.25,1195.00,17.49
796,866.33,1196.00,14.92
797,866.40,1197.00,0.88
798,866.48,1198.00,13.30
799,866.55,1199.00,33.26
800,866.63,1200.00,27.59
801,866.70,1201.00,22.35
802,866.78,1202.00,28.50
803,866.85,1203.00,22.05
804,866.93,1204.00,22.60
805,867.00,1205.00,47.34
806,867.08,1206.00,25.60
807,867.15,1207.00,10.60
808,867.23,1208.00,15.82
809,867.30,1209.00,11.41
810,867.38,1210.00,17.41
811,867.45,1211.00,0.00
812,867.53,1212.00,0.00
813,867.60,1213.00,8.81
814,867.68,1214.00,5.15
815,867.75,1215.00,12.16
816,867.83,1216.00,7.48
817,867.90,1217.00,8.38
818,867.98,1218.00,23.65
819,868.06,1219.00,20.42
820,868.13,1220.00,18.52
821,868.21,1221.00,35.85
822,868.28,1222.00,46.88
823,868.36,1223.00,39.45
824,868.43,1224.00,77.62
825,868.51,1225.00,45.79
826,868.58,1226.00,69.63
827,868.66,1227.00,38.31
828,868.73,1228.00,34.10
829,868.81,1229.00,88.16
830,868.89,1230.00,63.18
831,868.96,1231.00,60.06
832,869.04,1232.00,48.13
833,869.11,1233.00,43.62
834,869.19,1234.00,66.61
835,869.26,1235.00,16.78
836,869.34,1236.00,35.30
837,869.41,1237.00,44.59
838,869.49,1238.00,54.00
839,869.57,1239.00,11.14
840,869.64,1240.00,53.07
841,869.72,1241.00,21.63
842,869.79,1242.00,34.05
843,869.87,1243.00,37.10
844,869.94,1244.00,24.29
845,870.02,1245.00,32.87
846,870.09,1246.00,20.04
847,870.17,1247.00,21.15
848,870.25,1248.00,13.19
849,870.32,1249.00,13.50
850,870.40,1250.00,22.29
851,870.47,1251.00,6.81
852,870.55,1252.00,29.90
853,870.63,1253.00,9.62
854,870.70,1254.00,47.49
855,870.78,1255.00,14.13
856,870.85,1256.00,53.04
857,870.93,1257.00,36.92
858,871.00,1258.00,49.49
859,871.08,1259.00,61.07
860,871.16,1260.00,63.25
861,871.23,1261.00,62.38
862,871.31,1262.00,57.45
863,871.38,1263.00,62.82
864,871.46,1264.00,74.70
865,871.54,1265.00,71.83
866,871.61,1266.00,78.65
867,871.69,1267.00,78.75
868,871.76,1268.00,90.81
869,871.84,1269.00,85.77
870,871.92,1270.00,97.62
871,871.99,1271.00,93.51
872,872.07,1272.00,122.27
873,872.14,1273.00,132.78
874,872.22,1274.00,151.72
875,872.30,1275.00,186.83
876,872.37,1276.00,229.44
877,872.45,1277.00,267.12
878,872.52,1278.00,302.82
879,872.60,1279.00,348.96
880,872.68,1280.00,425.84
881,872.75,1281.00,483.33
882,872.83,1282.00,585.93
883,872.91,1283.00,692.14
884,872.98,1284.00,777.64
885,873.06,1285.00,872.27
886,873.13,1286.00,967.84
887,873.21,1287.00,1090.31
888,873.29,1288.00,1144.81
889,873.36,1289.00,1230.61
890,873.44,1290.00,1271.26
891,873.52,1291.00,1365.22
892,873.59,1292.00,1318.98
893,873.67,1293.00,1268.61
894,873.74,1294.00,1234.70
895,873.82,1295.00,1139.43
896,873.90,1296.00,1043.72
897,873.97,1297.00,979.20
898,874.05,1298.00,845.13
899,874.13,1299.00,758.02
900,874.20,1300.00,614.93
901,874.28,1301.00,560.78
902,874.36,1302.00,465.80
903,874.43,1303.00,372.30
904,874.51,1304.00,324.41
905,874.58,1305.00,274.16
906,874.66,1306.00,233.01
907,874.74,1307.00,199.72
908,874.81,1308.00,188.30
909,874.89,1309.00,167.96
910,874.97,1310.00,160.64
911,875.04,1311.00,153.09
912,875.12,1312.00,135.29
913,875.20,1313.00,124.07
914,875.27,1314.00,134.15
915,875.35,1315.00,127.30
916,875.43,1316.00,147.72
917,875.50,1317.00,132.48
918,875.58,1318.00,148.44
919,875.66,1319.00,156.70
920,875.73,1320.00,135.46
921,875.81,1321.00,144.30
922,875.89,1322.00,164.68
923,875.96,1323.00,167.72
924,876.04,1324.00,194.67
925,876.12,1325.00,164.67
926,876.19,1326.00,163.93
927,876.27,1327.00,161.94
928,876.35,1328.00,156.10
929,876.42,1329.00,148.23
930,876.50,1330.00,146.92
931,876.58,1331.00,156.65
932,876.65,1332.00,138.29
933,876.73,1333.00,136.18
934,876.81,1334.00,150.53
935,876.89,1335.00,110.91
936,876.96,1336.00,137.20
937,877.04,1337.00,144.20
938,877.12,1338.00,166.13
939,877.19,1339.00,143.25
940,877.27,1340.00,158.15
941,877.35,1341.00,201.41
942,877.42,1342.00,188.06
943,877.50,1343.00,187.91
944,877.58,1344.00,237.81
945,877.65,1345.00,224.03
946,877.73,1346.00,229.28
947,877.81,1347.00,238.87
948,877.89,1348.00,224.66
949,877.96,1349.00,249.78
950,878.04,1350.00,280.01
951,878.12,1351.00,235.50
952,878.19,1352.00,292.18
953,878.27,1353.00,264.49
954,878.35,1354.00,283.67
955,878.43,1355.00,247.70
956,878.50,1356.00,260.12
957,878.58,1357.00,275.07
958,878.66,1358.00,253.14
959,878.73,1359.00,226.47
960,878.81,1360.00,259.53
961,878.89,1361.00,243.59
962,878.97,1362.00,241.03
963,879.04,1363.00,206.71
964,879.12,1364.00,216.80
965,879.20,1365.00,205.25
966,879.28,1366.00,226.18
967,879.35,1367.00,205.54
968,879.43,1368.00,250.02
969,879.51,1369.00,234.96
970,879.58,1370.00,264.06
971,879.66,1371.00,244.27
972,879.74,1372.00,272.89
973,879.82,1373.00,292.40
974,879.89,1374.00,273.21
975,879.97,1375.00,261.71
976,880.05,1376.00,290.79
977,880.13,1377.00,272.71
978,880.20,1378.00,296.84
979,880.28,1379.00,302.91
980,880.36,1380.00,305.11
981,880.44,1381.00,298.93
982,880.51,1382.00,305.33
983,880.59,1383.00,314.76
984,880.67,1384.00,336.72
985,880.75,1385.00,351.01
986,880.82,1386.00,376.30
987,880.90,1387.00,366.98
988,880.98,1388.00,408.53
989,881.06,1389.00,436.68
990,881.13,1390.00,425.46
991,881.21,1391.00,430.47
992,881.29,1392.00,498.54
993,881.37,1393.00,540.81
994,881.45,1394.00,562.87
995,881.52,1395.00,586.10
996,881.60,1396.00,634.50
997,881.68,1397.00,641.60
998,881.76,1398.00,688.84
999,881.83,1399.00,728.79
1000,881.91,1400.00,789.45
1001,881.99,1401.00,819.47
1002,882.07,1402.00,853.60
1003,882.15,1403.00,900.34
1004,882.22,1404.00,960.90
1005,882.30,1405.00,1004.19
1006,882.38,1406.00,1066.80
1007,882.46,1407.00,1129.40
1008,882.53,1408.00,1178.71
1009,882.61,1409.00,1242.21
1010,882.69,1410.00,1259.14
1011,882.77,1411.00,1303.17
1012,882.85,1412.00,1334.73
1013,882.92,1413.00,1304.55
1014,883.00,1414.00,1330.37
1015,883.08,1415.00,1321.66
1016,883.16,1416.00,1271.00
1017,883.24,1417.00,1242.49
1018,883.31,1418.00,1209.15
1019,883.39,1419.00,1170.03
1020,883.47,1420.00,1124.57
1021,883.55,1421.00,1051.17
1022,883.63,1422.00,1045.10
1023,883.70,1423.00,1005.07
1024,883.78,1424.00,966.82
1025,883.86,1425.00,925.18
1026,883.94,1426.00,893.89
1027,884.02,1427.00,873.81
1028,884.10,1428.00,886.38
1029,884.17,1429.00,859.55
1030,884.25,1430.00,826.91
1031,884.33,1431.00,805.83
1032,884.41,1432.00,743.77
1033,884.49,1433.00,709.45
1034,884.56,1434.00,691.29
1035,884.64,1435.00,679.66
1036,884.72,1436.00,660.69
1037,884.80,1437.00,616.09
1038,884.88,1438.00,593.08
1039,884.96,1439.00,602.10
1040,885.03,1440.00,554.92
1041,885.11,1441.00,532.60
1042,885.19,1442.00,510.00
1043,885.27,1443.00,522.50
1044,885.35,1444.00,544.46
1045,885.43,1445.00,547.86
1046,885.50,1446.00,549.33
1047,885.58,1447.00,561.48
1048,885.66,1448.00,533.77
1049,885.74,1449.00,534.66
1050,885.82,1450.00,531.04
1051,885.90,1451.00,571.51
1052,885.98,1452.00,622.68
1053,886.05,1453.00,589.34
1054,886.13,1454.00,594.17
1055,886.21,1455.00,638.19
1056,886.29,1456.00,630.14
1057,886.37,1457.00,592.16
1058,886.45,1458.00,619.61
1059,886.52,1459.00,705.96
1060,886.60,1460.00,683.27
1061,886.68,1461.00,642.87
1062,886.76,1462.00,668.88
1063,886.84,1463.00,674.96
1064,886.92,1464.00,633.45
1065,887.00,1465.00,620.20
1066,887.08,1466.00,586.64
1067,887.15,1467.00,591.91
1068,887.23,1468.00,634.06
1069,887.31,1469.00,602.91
1070,887.39,1470.00,589.36
1071,887.47,1471.00,614.57
1072,887.55,1472.00,588.37
1073,887.63,1473.00,609.82
1074,887.71,1474.00,612.53
1075,887.78,1475.00,678.03
1076,887.86,1476.00,646.40
1077,887.94,1477.00,629.55
1078,888.02,1478.00,625.90
1079,888.10,1479.00,615.22
1080,888.18,1480.00,525.00
1081,888.26,1481.00,518.89
1082,888.34,1482.00,472.43
1083,888.42,1483.00,464.06
1084,888.49,1484.00,446.59
1085,888.57,1485.00,433.20
1086,888.65,1486.00,394.83
1087,888.73,1487.00,375.56
1088,888.81,1488.00,372.83
1089,888.89,1489.00,381.56
1090,888.97,1490.00,402.62
1091,889.05,1491.00,446.76
1092,889.13,1492.00,432.95
1093,889.21,1493.00,477.93
1094,889.28,1494.00,471.22
1095,889.36,1495.00,519.97
1096,889.44,1496.00,429.11
1097,889.52,1497.00,418.71
1098,889.60,1498.00,379.17
1099,889.68,1499.00,376.06
1100,889.76,1500.00,322.22
1101,889.84,1501.00,329.07
1102,889.92,1502.00,253.36
1103,890.00,1503.00,253.37
1104,890.08,1504.00,210.50
1105,890.15,1505.00,163.91
1106,890.23,1506.00,192.07
1107,890.31,1507.00,211.52
1108,890.39,1508.00,196.41
1109,890.47,1509.00,244.08
1110,890.55,1510.00,242.09
1111,890.63,1511.00,262.64
1112,890.71,1512.00,201.43
1113,890.79,1513.00,189.72
1114,890.87,1514.00,180.88
1115,890.95,1515.00,175.05
1116,891.03,1516.00,163.00
1117,891.11,1517.00,153.16
1118,891.19,1518.00,114.47
1119,891.27,1519.00,107.28
1120,891.35,1520.00,78.43
1121,891.42,1521.00,73.12
1122,891.50,1522.00,80.31
1123,891.58,1523.00,96.06
1124,891.66,1524.00,84.05
1125,891.74,1525.00,120.52
1126,891.82,1526.00,127.52
1127,891.90,1527.00,159.79
1128,891.98,1528.00,124.06
1129,892.06,1529.00,185.39
1130,892.14,1530.00,178.81
1131,892.22,1531.00,209.85
1132,892.30,1532.00,193.84
1133,892.38,1533.00,255.57
1134,892.46,1534.00,210.77
1135,892.54,1535.00,208.00
1136,892.62,1536.00,236.42
1137,892.70,1537.00,212.59
1138,892.78,1538.00,197.65
1139,892.86,1539.00,187.11
1140,892.94,1540.00,205.34
1141,893.02,1541.00,247.84
1142,893.10,1542.00,232.51
1143,893.18,1543.00,244.77
1144,893.26,1544.00,165.53
1145,893.34,1545.00,96.21
1146,893.42,1546.00,95.43
1147,893.50,1547.00,60.53
1148,893.58,1548.00,46.10
1149,893.66,1549.00,29.72
1150,893.73,1550.00,14.26
1151,893.81,1551.00,4.96
1152,893.89,1552.00,1.04
1153,893.97,1553.00,0.00
1154,894.05,1554.00,0.03
1155,894.13,1555.00,0.00
1156,894.21,1556.00,1.18
1157,894.29,1557.00,0.70
1158,894.37,1558.00,2.01
1159,894.45,1559.00,1.09
1160,894.53,1560.00,2.50
1161,894.61,1561.00,0.63
1162,894.69,1562.00,3.73
1163,894.77,1563.00,0.00
1164,894.85,1564.00,4.20
1165,894.93,1565.00,14.72
1166,895.01,1566.00,19.54
1167,895.09,1567.00,18.71
1168,895.18,1568.00,6.20
1169,895.26,1569.00,2.35
1170,895.34,1570.00,12.57
1171,895.42,1571.00,3.91
1172,895.50,1572.00,63.99
1173,895.58,1573.00,42.49
1174,895.66,1574.00,46.71
1175,895.74,1575.00,12.26
1176,895.82,1576.00,16.24
1177,895.90,1577.00,5.81
1178,895.98,1578.00,5.61
1179,896.06,1579.00,1.21
1180,896.14,1580.00,0.00
1181,896.22,1581.00,1.30
1182,896.30,1582.00,1.08
1183,896.38,1583.00,1.86
1184,896.46,1584.00,0.00
1185,896.54,1585.00,0.00
1186,896.62,1586.00,0.90
1187,896.70,1587.00,0.00
1188,896.78,1588.00,12.04
1189,896.86,1589.00,14.03
1190,896.94,1590.00,25.43
1191,897.02,1591.00,8.49
1192,897.10,1592.00,43.63
1193,897.18,1593.00,1.18
1194,897.26,1594.00,29.62
1195,897.34,1595.00,15.04
1196,897.42,1596.00,4.35
1197,897.50,1597.00,16.59
1198,897.59,1598.00,14.02
1199,897.67,1599.00,6.47
1200,897.75,1600.00,0.00
1201,897.83,1601.00,0.00
1202,897.91,1602.00,3.65
1203,897.99,1603.00,0.00
1204,898.07,1604.00,15.68
1205,898.15,1605.00,9.67
1206,898.23,1606.00,20.70
1207,898.31,1607.00,0.00
1208,898.39,1608.00,23.16
1209,898.47,1609.00,3.47
1210,898.55,1610.00,10.42
1211,898.63,1611.00,2.66
1212,898.71,1612.00,0.00
1213,898.80,1613.00,8.68
1214,898.88,1614.00,4.13
1215,898.96,1615.00,6.53
1216,899.04,1616.00,0.00
1217,899.12,1617.00,2.13
1218,899.20,1618.00,1.84
1219,899.28,1619.00,0.00
1220,899.36,1620.00,9.93
1221,899.44,1621.00,11.61
1222,899.52,1622.00,18.33
1223,899.60,1623.00,12.98
1224,899.69,1624.00,18.07
1225,899.77,1625.00,17.32
1226,899.85,1626.00,14.86
1227,899.93,1627.00,22.89
1228,900.01,1628.00,17.84
1229,900.09,1629.00,50.62
1230,900.17,1630.00,44.66
1231,900.25,1631.00,43.50
1232,900.33,1632.00,24.79
1233,900.41,1633.00,57.45
1234,900.50,1634.00,37.99
1235,900.58,1635.00,55.85
1236,900.66,1636.00,69.41
1237,900.74,1637.00,91.37
1238,900.82,1638.00,86.31
1239,900.90,1639.00,73.92
1240,900.98,1640.00,67.89
1241,901.06,1641.00,66.02
1242,901.14,1642.00,52.76
1243,901.23,1643.00,54.27
1244,901.31,1644.00,42.95
1245,901.39,1645.00,74.62
1246,901.47,1646.00,70.09
1247,901.55,1647.00,61.53
1248,901.63,1648.00,66.50
1249,901.71,1649.00,105.65
1250,901.79,1650.00,95.14
1251,901.88,1651.00,136.59
1252,901.96,1652.00,157.90
1253,902.04,1653.00,186.95
1254,902.12,1654.00,185.90
1255,902.20,1655.00,173.26
1256,902.28,1656.00,151.31
1257,902.36,1657.00,129.17
1258,902.45,1658.00,110.56
1259,902.53,1659.00,121.66
1260,902.61,1660.00,81.43
1261,902.69,1661.00,83.56
1262,902.77,1662.00,97.48
1263,902.85,1663.00,73.42
1264,902.93,1664.00,67.85
1265,903.02,1665.00,77.25
1266,903.10,1666.00,64.36
1267,903.18,1667.00,66.99
1268,903.26,1668.00,79.20
1269,903.34,1669.00,65.05
1270,903.42,1670.00,56.62
1271,903.51,1671.00,34.84
1272,903.59,1672.00,33.21
1273,903.67,1673.00,18.71
1274,903.75,1674.00,10.66
1275,903.83,1675.00,11.26
1276,903.91,1676.00,11.08
1277,904.00,1677.00,9.02
1278,904.08,1678.00,8.65
1279,904.16,1679.00,2.57
1280,904.24,1680.00,8.73
1281,904.32,1681.00,9.94
1282,904.40,1682.00,18.79
1283,904.49,1683.00,10.61
1284,904.57,1684.00,56.70
1285,904.65,1685.00,42.19
1286,904.73,1686.00,48.54
1287,904.81,1687.00,24.37
1288,904.90,1688.00,30.92
1289,904.98,1689.00,20.80
1290,905.06,1690.00,17.01
1291,905.14,1691.00,17.34
1292,905.22,1692.00,10.13
1293,905.31,1693.00,9.70
1294,905.39,1694.00,4.73
1295,905.47,1695.00,0.00
1296,905.55,1696.00,0.57
1297,905.63,1697.00,3.12
1298,905.72,1698.00,4.16
1299,905.80,1699.00,11.84
1300,905.88,1700.00,26.25
1301,905.96,1701.00,16.94
1302,906.04,1702.00,23.76
1303,906.13,1703.00,13.17
1304,906.21,1704.00,25.14
1305,906.29,1705.00,8.87
1306,906.37,1706.00,14.83
1307,906.45,1707.00,5.67
1308,906.54,1708.00,8.45
1309,906.62,1709.00,10.27
1310,906.70,1710.00,5.00
1311,906.78,1711.00,6.07
1312,906.87,1712.00,3.10
1313,906.95,1713.00,0.52
1314,907.03,1714.00,1.89
1315,907.11,1715.00,9.38
1316,907.19,1716.00,22.29
1317,907.28,1717.00,20.12
1318,907.36,1718.00,34.58
1319,907.44,1719.00,4.64
1320,907.52,1720.00,25.19
1321,907.61,1721.00,11.08
1322,907.69,1722.00,12.75
1323,907.77,1723.00,0.04
1324,907.85,1724.00,7.52
1325,907.94,1725.00,18.35
1326,908.02,1726.00,7.25
1327,908.10,1727.00,4.98
1328,908.18,1728.00,0.00
1329,908.27,1729.00,0.00
1330,908.35,1730.00,0.73
1331,908.43,1731.00,7.77
1332,908.51,1732.00,24.29
1333,908.60,1733.00,15.79
1334,908.68,1734.00,47.23
1335,908.76,1735.00,0.00
1336,908.84,1736.00,26.06
1337,908.93,1737.00,10.13
1338,909.01,1738.00,6.36
1339,909.09,1739.00,0.00
1340,909.17,1740.00,0.81
1341,909.26,1741.00,10.45
1342,909.34,1742.00,4.33
1343,909.42,1743.00,0.50
1344,909.50,1744.00,0.00
1345,909.59,1745.00,0.34
1346,909.67,1746.00,0.90
1347,909.75,1747.00,1.09
1348,909.84,1748.00,7.04
1349,909.92,1749.00,3.41
1350,910.00,1750.00,23.23
1351,910.08,1751.00,0.00
1352,910.17,1752.00,18.50
1353,910.25,1753.00,9.64
1354,910.33,1754.00,14.52
1355,910.42,1755.00,0.00
1356,910.50,1756.00,12.66
1357,910.58,1757.00,29.59
1358,910.66,1758.00,22.93
1359,910.75,1759.00,0.00
1360,910.83,1760.00,0.00
1361,910.91,1761.00,2.58
1362,911.00,1762.00,2.68
1363,911.08,1763.00,0.00
1364,911.16,1764.00,9.62
1365,911.24,1765.00,2.98
1366,911.33,1766.00,28.47
1367,911.41,1767.00,0.00
1368,911.49,1768.00,24.58
1369,911.58,1769.00,11.96
1370,911.66,1770.00,22.57
1371,911.74,1771.00,0.00
1372,911.83,1772.00,15.43
1373,911.91,1773.00,19.09
1374,911.99,1774.00,15.17
1375,912.08,1775.00,0.00
1376,912.16,1776.00,3.96
1377,912.24,1777.00,15.31
1378,912.33,1778.00,9.26
1379,912.41,1779.00,1.02
1380,912.49,1780.00,24.75
1381,912.58,1781.00,2.72
1382,912.66,1782.00,26.33
1383,912.74,1783.00,2.46
1384,912.83,1784.00,11.73
1385,912.91,1785.00,3.52
1386,912.99,1786.00,7.77
1387,913.08,1787.00,0.00
1388,913.16,1788.00,1.28
1389,913.24,1789.00,5.19
1390,913.33,1790.00,1.61
1391,913.41,1791.00,0.00
1392,913.49,1792.00,0.00
1393,913.58,1793.00,3.13
1394,913.66,1794.00,2.56
1395,913.74,1795.00,5.76
1396,913.83,1796.00,19.96
1397,913.91,1797.00,16.73
1398,913.99,1798.00,31.40
1399,914.08,1799.00,7.20
1400,914.16,1800.00,22.95
1401,914.24,1801.00,10.46
1402,914.33,1802.00,17.01
1403,914.41,1803.00,1.85
1404,914.49,1804.00,7.26
1405,914.58,1805.00,10.91
1406,914.66,1806.00,4.44
1407,914.75,1807.00,0.00
1408,914.83,1808.00,1.39
1409,914.91,1809.00,1.31
1410,915.00,1810.00,8.06
1411,915.08,1811.00,4.77
1412,915.16,1812.00,20.14
1413,915.25,1813.00,8.58
1414,915.33,1814.00,29.24
1415,915.42,1815.00,0.19
1416,915.50,1816.00,24.37
1417,915.58,1817.00,8.95
1418,915.67,1818.00,15.68
1419,915.75,1819.00,0.00
1420,915.83,1820.00,11.20
1421,915.92,1821.00,9.52
1422,916.00,1822.00,5.58
1423,916.09,1823.00,0.00
1424,916.17,1824.00,4.99
1425,916.25,1825.00,0.00
1426,916.34,1826.00,6.58
1427,916.42,1827.00,0.00
1428,916.51,1828.00,8.96
1429,916.59,1829.00,0.20
1430,916.67,1830.00,21.05
1431,916.76,1831.00,2.73
1432,916.84,1832.00,20.58
1433,916.93,1833.00,14.47
1434,917.01,1834.00,26.42
1435,917.09,1835.00,4.39
1436,917.18,1836.00,22.84
1437,917.26,1837.00,24.69
1438,917.35,1838.00,11.89
1439,917.43,1839.00,0.00
1440,917.52,1840.00,5.43
1441,917.60,1841.00,0.60
1442,917.68,1842.00,0.87
1443,917.77,1843.00,0.00
1444,917.85,1844.00,3.16
1445,917.94,1845.00,1.41
1446,918.02,1846.00,5.75
1447,918.11,1847.00,0.00
1448,918.19,1848.00,3.65
1449,918.27,1849.00,6.32
1450,918.36,1850.00,7.60
1451,918.44,1851.00,0.00
1452,918.53,1852.00,9.84
1453,918.61,1853.00,26.36
1454,918.70,1854.00,16.06
1455,918.78,1855.00,0.58
1456,918.86,1856.00,7.75
1457,918.95,1857.00,9.20
1458,919.03,1858.00,16.80
1459,919.12,1859.00,4.61
1460,919.20,1860.00,10.26
1461,919.29,1861.00,11.94
1462,919.37,1862.00,27.04
1463,919.46,1863.00,0.00
1464,919.54,1864.00,15.09
1465,919.62,1865.00,12.87
1466,919.71,1866.00,22.54
1467,919.79,1867.00,0.00
1468,919.88,1868.00,21.07
1469,919.96,1869.00,22.33
1470,920.05,1870.00,14.51
1471,920.13,1871.00,3.57
1472,920.22,1872.00,8.82
1473,920.30,1873.00,5.36
1474,920.39,1874.00,18.05
1475,920.47,1875.00,5.94
1476,920.56,1876.00,18.16
1477,920.64,1877.00,7.13
1478,920.73,1878.00,25.28
1479,920.81,1879.00,0.00
1480,920.90,1880.00,20.10
1481,920.98,1881.00,8.14
1482,921.06,1882.00,21.05
1483,921.15,1883.00,0.20
1484,921.23,1884.00,20.23
1485,921.32,1885.00,23.55
1486,921.40,1886.00,13.57
1487,921.49,1887.00,0.70
1488,921.57,1888.00,10.95
1489,921.66,1889.00,6.01
1490,921.74,1890.00,12.77
1491,921.83,1891.00,5.93
1492,921.91,1892.00,12.19
1493,922.00,1893.00,6.37
1494,922.08,1894.00,19.74
1495,922.17,1895.00,0.00
1496,922.25,1896.00,7.86
1497,922.34,1897.00,9.34
1498,922.42,1898.00,13.83
1499,922.51,1899.00,0.00
1500,922.59,1900.00,4.48
1501,922.68,1901.00,19.75
1502,922.76,1902.00,7.75
1503,922.85,1903.00,0.00
1504,922.93,1904.00,5.05
1505,923.02,1905.00,11.48
1506,923.11,1906.00,17.45
1507,923.19,1907.00,12.40
1508,923.28,1908.00,11.42
1509,923.36,1909.00,18.43
1510,923.45,1910.00,28.62
1511,923.53,1911.00,6.13
1512,923.62,1912.00,15.31
1513,923.70,1913.00,11.09
1514,923.79,1914.00,26.93
1515,923.87,1915.00,5.45
1516,923.96,1916.00,18.14
1517,924.04,1917.00,33.83
1518,924.13,1918.00,17.29
1519,924.21,1919.00,4.70
1520,924.30,1920.00,12.65
1521,924.39,1921.00,15.47
1522,924.47,1922.00,22.12
1523,924.56,1923.00,13.91
1524,924.64,1924.00,16.88
1525,924.73,1925.00,23.38
1526,924.81,1926.00,33.61
1527,924.90,1927.00,5.21
1528,924.98,1928.00,14.83
1529,925.07,1929.00,6.01
1530,925.16,1930.00,14.55
1531,925.24,1931.00,2.90
1532,925.33,1932.00,6.00
1533,925.41,1933.00,22.08
1534,925.50,1934.00,11.51
1535,925.58,1935.00,0.54
1536,925.67,1936.00,6.83
1537,925.75,1937.00,7.29
1538,925.84,1938.00,10.62
1539,925.93,1939.00,4.81
1540,926.01,1940.00,9.23
1541,926.10,1941.00,13.79
1542,926.18,1942.00,29.09
1543,926.27,1943.00,7.91
1544,926.35,1944.00,10.60
1545,926.44,1945.00,12.21
1546,926.53,1946.00,15.38
1547,926.61,1947.00,5.16
1548,926.70,1948.00,10.26
1549,926.78,1949.00,39.42
1550,926.87,1950.00,21.98
1551,926.96,1951.00,10.21
1552,927.04,1952.00,17.12
1553,927.13,1953.00,27.03
1554,927.21,1954.00,30.11
1555,927.30,1955.00,23.63
1556,927.39,1956.00,21.98
1557,927.47,1957.00,34.39
1558,927.56,1958.00,50.05
1559,927.64,1959.00,18.69
1560,927.73,1960.00,20.71
1561,927.82,1961.00,18.33
1562,927.90,1962.00,23.63
1563,927.99,1963.00,6.30
1564,928.07,1964.00,11.33
1565,928.16,1965.00,32.83
1566,928.25,1966.00,21.99
1567,928.33,1967.00,9.82
1568,928.42,1968.00,22.06
1569,928.51,1969.00,23.71
1570,928.59,1970.00,32.31
1571,928.68,1971.00,16.01
1572,928.76,1972.00,27.44
1573,928.85,1973.00,29.17
1574,928.94,1974.00,35.04
1575,929.02,1975.00,9.41
1576,929.11,1976.00,15.04
1577,929.20,1977.00,4.75
1578,929.28,1978.00,9.88
1579,929.37,1979.00,2.03
1580,929.45,1980.00,6.98
1581,929.54,1981.00,17.85
1582,929.63,1982.00,8.06
1583,929.71,1983.00,1.77
1584,929.80,1984.00,10.45
1585,929.89,1985.00,11.74
1586,929.97,1986.00,18.86
1587,930.06,1987.00,9.06
1588,930.15,1988.00,21.91
1589,930.23,1989.00,16.22
1590,930.32,1990.00,35.78
1591,930.41,1991.00,11.73
1592,930.49,1992.00,12.35
1593,930.58,1993.00,5.53
1594,930.67,1994.00,12.97
1595,930.75,1995.00,0.00
1596,930.84,1996.00,9.81
1597,930.93,1997.00,31.50
1598,931.01,1998.00,15.36
1599,931.10,1999.00,3.78
1600,931.19,2000.00,11.70
1601,931.27,2001.00,10.38
1602,931.36,2002.00,14.54
1603,931.45,2003.00,7.41
1604,931.53,2004.00,11.05
1605,931.62,2005.00,4.60
1606,931.71,2006.00,17.21
1607,931.79,2007.00,0.00
1608,931.88,2008.00,8.06
1609,931.97,2009.00,1.82
1610,932.05,2010.00,13.12
1611,932.14,2011.00,0.00
1612,932.23,2012.00,13.76
1613,932.31,2013.00,26.15
1614,932.40,2014.00,13.36
1615,932.49,2015.00,8.10
1616,932.57,2016.00,11.55
1617,932.66,2017.00,2.65
1618,932.75,2018.00,14.80
1619,932.84,2019.00,3.00
1620,932.92,2020.00,16.34
1621,933.01,2021.00,3.97
1622,933.10,2022.00,26.70
1623,933.18,2023.00,1.02
1624,933.27,2024.00,18.63
1625,933.36,2025.00,1.13
1626,933.45,2026.00,15.93
1627,933.53,2027.00,0.00
1628,933.62,2028.00,13.69
1629,933.71,2029.00,13.04
1630,933.79,2030.00,7.31
1631,933.88,2031.00,0.00
1632,933.97,2032.00,3.44
1633,934.06,2033.00,0.36
1634,934.14,2034.00,1.10
1635,934.23,2035.00,1.00
1636,934.32,2036.00,6.19
1637,934.40,2037.00,0.00
1638,934.49,2038.00,13.40
1639,934.58,2039.00,4.39
1640,934.67,2040.00,9.19
1641,934.75,2041.00,9.40
1642,934.84,2042.00,18.60
1643,934.93,2043.00,0.00
1644,935.02,2044.00,15.78
1645,935.10,2045.00,35.45
1646,935.19,2046.00,12.26
1647,935.28,2047.00,0.66
1648,935.37,2048.00,3.82
1649,935.45,2049.00,0.96
1650,935.54,2050.00,2.90
1651,935.63,2051.00,0.60
1652,935.72,2052.00,2.76
1653,935.80,2053.00,0.39
1654,935.89,2054.00,8.58
1655,935.98,2055.00,0.00
1656,936.07,2056.00,6.73
1657,936.15,2057.00,0.64
1658,936.24,2058.00,13.51
1659,936.33,2059.00,0.00
1660,936.42,2060.00,17.42
1661,936.51,2061.00,27.71
1662,936.59,2062.00,15.65
1663,936.68,2063.00,12.20
1664,936.77,2064.00,18.69
1665,936.86,2065.00,5.13
1666,936.94,2066.00,11.87
1667,937.03,2067.00,6.93
1668,937.12,2068.00,13.72
1669,937.21,2069.00,0.00
1670,937.30,2070.00,13.89
1671,937.38,2071.00,0.76
1672,937.47,2072.00,8.56
1673,937.56,2073.00,0.00
1674,937.65,2074.00,14.51
1675,937.73,2075.00,0.00
1676,937.82,2076.00,15.86
1677,937.91,2077.00,18.43
1678,938.00,2078.00,17.19
1679,938.09,2079.00,7.84
1680,938.17,2080.00,11.93
1681,938.26,2081.00,7.02
1682,938.35,2082.00,2.98
1683,938.44,2083.00,4.18
1684,938.53,2084.00,6.76
1685,938.61,2085.00,4.86
1686,938.70,2086.00,12.80
1687,938.79,2087.00,2.97
1688,938.88,2088.00,2.55
1689,938.97,2089.00,0.90
1690,939.06,2090.00,5.67
1691,939.14,2091.00,0.00
1692,939.23,2092.00,3.18
1693,939.32,2093.00,11.18
1694,939.41,2094.00,4.26
1695,939.50,2095.00,0.08
1696,939.58,2096.00,0.74
1697,939.67,2097.00,9.50
1698,939.76,2098.00,10.88
1699,939.85,2099.00,12.45
1700,939.94,2100.00,18.60
1701,940.03,2101.00,17.22
1702,940.11,2102.00,40.63
1703,940.20,2103.00,21.92
1704,940.29,2104.00,18.66
1705,940.38,2105.00,8.60
1706,940.47,2106.00,24.89
1707,940.56,2107.00,0.00
1708,940.65,2108.00,20.93
1709,940.73,2109.00,30.37
1710,940.82,2110.00,10.19
1711,940.91,2111.00,7.88
1712,941.00,2112.00,6.37
1713,941.09,2113.00,7.94
1714,941.18,2114.00,13.29
1715,941.27,2115.00,10.51
1716,941.35,2116.00,6.15
1717,941.44,2117.00,5.10
1718,941.53,2118.00,16.19
1719,941.62,2119.00,2.68
1720,941.71,2120.00,9.68
1721,941.80,2121.00,0.84
1722,941.89,2122.00,16.55
1723,941.97,2123.00,0.00
1724,942.06,2124.00,21.14
1725,942.15,2125.00,30.57
1726,942.24,2126.00,17.96
1727,942.33,2127.00,8.11
1728,942.42,2128.00,14.17
1729,942.51,2129.00,0.10
1730,942.60,2130.00,14.04
1731,942.68,2131.00,6.66
1732,942.77,2132.00,10.74
1733,942.86,2133.00,5.37
1734,942.95,2134.00,21.10
1735,943.04,2135.00,3.44
1736,943.13,2136.00,10.29
1737,943.22,2137.00,2.81
1738,943.31,2138.00,14.90
1739,943.40,2139.00,0.00
1740,943.49,2140.00,9.63
1741,943.57,2141.00,15.53
1742,943.66,2142.00,7.80
1743,943.75,2143.00,0.00
1744,943.84,2144.00,7.05
1745,943.93,2145.00,1.20
1746,944.02,2146.00,6.26
1747,944.11,2147.00,4.64
1748,944.20,2148.00,6.98
1749,944.29,2149.00,7.22
1750,944.38,2150.00,15.01
1751,944.47,2151.00,6.31
1752,944.55,2152.00,2.18
1753,944.64,2153.00,5.89
1754,944.73,2154.00,11.66
1755,944.82,2155.00,0.00
1756,944.91,2156.00,8.27
1757,945.00,2157.00,33.89
1758,945.09,2158.00,13.79
1759,945.18,2159.00,9.15
1760,945.27,2160.00,15.13
1761,945.36,2161.00,15.80
1762,945.45,2162.00,24.84
1763,945.54,2163.00,20.30
1764,945.63,2164.00,16.76
1765,945.72,2165.00,20.70
1766,945.81,2166.00,34.47
1767,945.89,2167.00,13.84
1768,945.98,2168.00,13.55
1769,946.07,2169.00,5.51
1770,946.16,2170.00,19.67
1771,946.25,2171.00,3.84
1772,946.34,2172.00,18.39
1773,946.43,2173.00,26.65
1774,946.52,2174.00,14.37
1775,946.61,2175.00,11.80
1776,946.70,2176.00,14.28
1777,946.79,2177.00,9.77
1778,946.88,2178.00,12.66
1779,946.97,2179.00,16.76
1780,947.06,2180.00,15.43
1781,947.15,2181.00,8.64
1782,947.24,2182.00,22.20
1783,947.33,2183.00,10.56
1784,947.42,2184.00,12.28
1785,947.51,2185.00,7.94
1786,947.60,2186.00,15.61
1787,947.69,2187.00,0.00
1788,947.78,2188.00,16.86
1789,947.87,2189.00,34.26
1790,947.96,2190.00,14.83
1791,948.05,2191.00,9.33
1792,948.14,2192.00,11.08
1793,948.23,2193.00,6.69
1794,948.32,2194.00,18.58
1795,948.41,2195.00,10.80
1796,948.50,2196.00,12.63
1797,948.59,2197.00,10.60
1798,948.68,2198.00,26.06
1799,948.77,2199.00,2.81
1800,948.86,2200.00,9.67
1801,948.95,2201.00,3.43
1802,949.04,2202.00,12.44
1803,949.13,2203.00,0.00
1804,949.22,2204.00,11.30
1805,949.31,2205.00,23.86
1806,949.40,2206.00,7.42
1807,949.49,2207.00,2.61
1808,949.58,2208.00,5.27
1809,949.67,2209.00,4.94
1810,949.76,2210.00,9.07
1811,949.85,2211.00,8.70
1812,949.94,2212.00,9.62
1813,950.03,2213.00,5.50
1814,950.12,2214.00,16.76
1815,950.21,2215.00,9.08
1816,950.30,2216.00,6.11
1817,950.39,2217.00,7.58
1818,950.48,2218.00,17.14
1819,950.57,2219.00,0.00
1820,950.66,2220.00,18.54
1821,950.75,2221.00,38.39
1822,950.84,2222.00,13.74
1823,950.93,2223.00,15.40
1824,951.02,2224.00,17.39
1825,951.11,2225.00,17.87
1826,951.20,2226.00,21.89
1827,951.29,2227.00,25.45
1828,951.38,2228.00,21.04
1829,951.47,2229.00,18.72
1830,951.57,2230.00,27.60
1831,951.66,2231.00,10.70
1832,951.75,2232.00,8.58
1833,951.84,2233.00,5.07
1834,951.93,2234.00,15.45
1835,952.02,2235.00,0.00
1836,952.11,2236.00,8.83
1837,952.20,2237.00,20.68
1838,952.29,2238.00,5.05
1839,952.38,2239.00,4.56
1840,952.47,2240.00,4.03
1841,952.56,2241.00,4.20
1842,952.65,2242.00,12.89
1843,952.74,2243.00,3.40
1844,952.83,2244.00,13.77
1845,952.93,2245.00,6.51
1846,953.02,2246.00,27.90
1847,953.11,2247.00,3.60
1848,953.20,2248.00,15.91
1849,953.29,2249.00,0.00
1850,953.38,2250.00,16.56
1851,953.47,2251.00,0.00
1852,953.56,2252.00,7.98
1853,953.65,2253.00,15.24
1854,953.74,2254.00,5.21
1855,953.83,2255.00,0.00
1856,953.93,2256.00,4.83
1857,954.02,2257.00,0.00
1858,954.11,2258.00,0.36
1859,954.20,2259.00,2.04
1860,954.29,2260.00,3.28
1861,954.38,2261.00,0.32
1862,954.47,2262.00,6.11
1863,954.56,2263.00,1.17
1864,954.65,2264.00,3.47
1865,954.75,2265.00,0.00
1866,954.84,2266.00,5.91
1867,954.93,2267.00,0.00
1868,955.02,2268.00,5.64
1869,955.11,2269.00,27.68
1870,955.20,2270.00,11.07
1871,955.29,2271.00,1.03
1872,955.38,2272.00,10.88
1873,955.47,2273.00,14.28
1874,955.57,2274.00,13.27
1875,955.66,2275.00,8.98
1876,955.75,2276.00,13.27
1877,955.84,2277.00,9.04
1878,955.93,2278.00,32.35
1879,956.02,2279.00,7.38
1880,956.11,2280.00,11.33
1881,956.21,2281.00,0.00
1882,956.30,2282.00,12.25
1883,956.39,2283.00,0.00
1884,956.48,2284.00,5.03
1885,956.57,2285.00,15.19
1886,956.66,2286.00,5.51
1887,956.75,2287.00,2.78
1888,956.85,2288.00,6.09
1889,956.94,2289.00,4.35
1890,957.03,2290.00,5.87
1891,957.12,2291.00,3.74
1892,957.21,2292.00,9.59
1893,957.30,2293.00,3.43
1894,957.40,2294.00,20.30
1895,957.49,2295.00,3.12
1896,957.58,2296.00,19.36
1897,957.67,2297.00,2.32
1898,957.76,2298.00,21.63
1899,957.85,2299.00,0.00
1900,957.95,2300.00,17.41
1901,958.04,2301.00,22.05
1902,958.13,2302.00,13.70
1903,958.22,2303.00,0.14
1904,958.31,2304.00,13.97
1905,958.41,2305.00,2.08
1906,958.50,2306.00,5.99
1907,958.59,2307.00,9.03
1908,958.68,2308.00,17.91
1909,958.77,2309.00,8.42
1910,958.86,2310.00,19.77
1911,958.96,2311.00,2.02
1912,959.05,2312.00,6.66
1913,959.14,2313.00,0.00
1914,959.23,2314.00,4.10
1915,959.32,2315.00,0.00
1916,959.42,2316.00,2.94
1917,959.51,2317.00,4.66
1918,959.60,2318.00,0.86
1919,959.69,2319.00,0.00
1920,959.79,2320.00,2.08
1921,959.88,2321.00,2.71
1922,959.97,2322.00,0.14
1923,960.06,2323.00,1.37
1924,960.15,2324.00,7.54
1925,960.25,2325.00,6.42
1926,960.34,2326.00,22.90
1927,960.43,2327.00,10.27
1928,960.52,2328.00,19.46
1929,960.61,2329.00,7.60
1930,960.71,2330.00,26.58
1931,960.80,2331.00,0.00
1932,960.89,2332.00,9.96
1933,960.98,2333.00,31.96
1934,961.08,2334.00,15.81
1935,961.17,2335.00,0.00
1936,961.26,2336.00,7.22
1937,961.35,2337.00,1.12
1938,961.45,2338.00,1.92
1939,961.54,2339.00,4.62
1940,961.63,2340.00,7.74
1941,961.72,2341.00,9.25
1942,961.82,2342.00,23.56
1943,961.91,2343.00,7.05
1944,962.00,2344.00,15.98
1945,962.09,2345.00,3.51
1946,962.19,2346.00,16.07
1947,962.28,2347.00,0.00
1948,962.37,2348.00,16.02
1949,962.46,2349.00,20.36
1950,962.56,2350.00,6.74
1951,962.65,2351.00,3.48
1952,962.74,2352.00,8.09
1953,962.83,2353.00,3.76
1954,962.93,2354.00,2.00
1955,963.02,2355.00,3.99
1956,963.11,2356.00,3.64
1957,963.21,2357.00,5.22
1958,963.30,2358.00,15.66
1959,963.39,2359.00,7.11
1960,963.48,2360.00,10.69
1961,963.58,2361.00,15.09
1962,963.67,2362.00,26.61
1963,963.76,2363.00,4.31
1964,963.86,2364.00,22.86
1965,963.95,2365.00,49.25
1966,964.04,2366.00,23.67
1967,964.13,2367.00,12.96
1968,964.23,2368.00,11.43
1969,964.32,2369.00,16.67
1970,964.41,2370.00,22.47
1971,964.51,2371.00,21.25
1972,964.60,2372.00,17.70
1973,964.69,2373.00,21.62
1974,964.79,2374.00,31.90
1975,964.88,2375.00,14.53
1976,964.97,2376.00,15.49
1977,965.06,2377.00,10.40
1978,965.16,2378.00,19.10
1979,965.25,2379.00,2.84
1980,965.34,2380.00,13.07
1981,965.44,2381.00,25.12
1982,965.53,2382.00,10.04
1983,965.62,2383.00,2.36
1984,965.72,2384.00,7.63
1985,965.81,2385.00,5.39
1986,965.90,2386.00,11.90
1987,966.00,2387.00,8.12
1988,966.09,2388.00,8.04
1989,966.18,2389.00,15.32
1990,966.28,2390.00,30.81
1991,966.37,2391.00,10.13
1992,966.46,2392.00,17.11
1993,966.56,2393.00,5.29
1994,966.65,2394.00,16.75
1995,966.74,2395.00,0.54
1996,966.84,2396.00,6.53
1997,966.93,2397.00,21.70
1998,967.02,2398.00,11.97
1999,967.12,2399.00,1.11
2000,967.21,2400.00,11.76
