Pixel,Wavelength,Wavenumber,Processed
0,810.44,400.00,39.34
1,810.50,401.00,35.22
2,810.57,402.00,29.45
3,810.64,403.00,64.48
4,810.70,404.00,54.54
5,810.77,405.00,75.91
6,810.83,406.00,58.68
7,810.90,407.00,62.63
8,810.96,408.00,32.06
9,811.03,409.00,36.00
10,811.10,410.00,46.18
11,811.16,411.00,29.75
12,811.23,412.00,36.22
13,811.29,413.00,72.45
14,811.36,414.00,27.13
15,811.42,415.00,30.21
16,811.49,416.00,24.96
17,811.56,417.00,26.11
18,811.62,418.00,34.74
19,811.69,419.00,39.12
20,811.75,420.00,37.72
21,811.82,421.00,65.11
22,811.89,422.00,43.47
23,811.95,423.00,56.89
24,812.02,424.00,34.76
25,812.08,425.00,43.96
26,812.15,426.00,68.93
27,812.22,427.00,36.12
28,812.28,428.00,47.23
29,812.35,429.00,92.76
30,812.41,430.00,34.88
31,812.48,431.00,36.90
32,812.55,432.00,42.60
33,812.61,433.00,22.94
34,812.68,434.00,28.25
35,812.74,435.00,38.77
36,812.81,436.00,30.68
37,812.88,437.00,45.45
38,812.94,438.00,24.11
39,813.01,439.00,40.20
40,813.07,440.00,24.12
41,813.14,441.00,26.43
42,813.21,442.00,36.58
43,813.27,443.00,28.91
44,813.34,444.00,28.09
45,813.40,445.00,67.34
46,813.47,446.00,27.87
47,813.54,447.00,30.08
48,813.60,448.00,31.64
49,813.67,449.00,30.05
50,813.74,450.00,28.64
51,813.80,451.00,51.78
52,813.87,452.00,38.18
53,813.93,453.00,77.97
54,814.00,454.00,56.18
55,814.07,455.00,86.57
56,814.13,456.00,40.83
57,814.20,457.00,39.83
58,814.27,458.00,55.32
59,814.33,459.00,11.06
60,814.40,460.00,24.37
61,814.46,461.00,48.35
62,814.53,462.00,14.26
63,814.60,463.00,10.66
64,814.66,464.00,12.01
65,814.73,465.00,3.42
66,814.80,466.00,6.34
67,814.86,467.00,7.57
68,814.93,468.00,12.05
69,815.00,469.00,24.92
70,815.06,470.00,18.66
71,815.13,471.00,34.85
72,815.20,472.00,27.32
73,815.26,473.00,28.20
74,815.33,474.00,67.24
75,815.39,475.00,47.32
76,815.46,476.00,93.86
77,815.53,477.00,116.60
78,815.59,478.00,61.46
79,815.66,479.00,57.43
80,815.73,480.00,68.19
81,815.79,481.00,67.66
82,815.86,482.00,49.07
83,815.93,483.00,57.10
84,815.99,484.00,43.97
85,816.06,485.00,38.25
86,816.13,486.00,32.76
87,816.19,487.00,33.17
88,816.26,488.00,31.70
89,816.33,489.00,35.88
90,816.39,490.00,60.60
91,816.46,491.00,59.69
92,816.53,492.00,73.77
93,816.59,493.00,90.81
94,816.66,494.00,81.55
95,816.73,495.00,31.89
96,816.79,496.00,82.65
97,816.86,497.00,120.09
98,816.93,498.00,94.30
99,816.99,499.00,78.64
100,817.06,500.00,54.68
101,817.13,501.00,82.05
102,817.19,502.00,68.27
103,817.26,503.00,76.08
104,817.33,504.00,58.74
105,817.39,505.00,78.49
106,817.46,506.00,102.96
107,817.53,507.00,92.49
108,817.59,508.00,117.76
109,817.66,509.00,127.60
110,817.73,510.00,182.54
111,817.80,511.00,59.14
112,817.86,512.00,157.43
113,817.93,513.00,211.38
114,818.00,514.00,160.70
115,818.06,515.00,167.53
116,818.13,516.00,94.38
117,818.20,517.00,200.56
118,818.26,518.00,160.13
119,818.33,519.00,93.06
120,818.40,520.00,102.69
121,818.46,521.00,109.27
122,818.53,522.00,130.06
123,818.60,523.00,82.56
124,818.67,524.00,85.17
125,818.73,525.00,123.67
126,818.80,526.00,157.75
127,818.87,527.00,84.34
128,818.93,528.00,168.85
129,819.00,529.00,193.21
130,819.07,530.00,145.32
131,819.14,531.00,156.21
132,819.20,532.00,115.90
133,819.27,533.00,216.89
134,819.34,534.00,210.28
135,819.40,535.00,155.43
136,819.47,536.00,178.14
137,819.54,537.00,170.43
138,819.60,538.00,184.33
139,819.67,539.00,178.48
140,819.74,540.00,171.12
141,819.81,541.00,181.46
142,819.87,542.00,212.23
143,819.94,543.00,147.72
144,820.01,544.00,159.13
145,820.08,545.00,148.43
146,820.14,546.00,130.42
147,820.21,547.00,98.64
148,820.28,548.00,91.69
149,820.34,549.00,138.30
150,820.41,550.00,146.66
151,820.48,551.00,118.81
152,820.55,552.00,163.55
153,820.61,553.00,160.76
154,820.68,554.00,190.57
155,820.75,555.00,251.31
156,820.82,556.00,266.34
157,820.88,557.00,274.94
158,820.95,558.00,318.46
159,821.02,559.00,289.64
160,821.09,560.00,346.78
161,821.15,561.00,301.81
162,821.22,562.00,342.48
163,821.29,563.00,300.78
164,821.36,564.00,264.89
165,821.42,565.00,218.46
166,821.49,566.00,261.82
167,821.56,567.00,188.47
168,821.63,568.00,237.83
169,821.69,569.00,171.19
170,821.76,570.00,233.72
171,821.83,571.00,210.91
172,821.90,572.00,229.72
173,821.96,573.00,243.84
174,822.03,574.00,249.77
175,822.10,575.00,197.41
176,822.17,576.00,266.39
177,822.23,577.00,322.77
178,822.30,578.00,341.38
179,822.37,579.00,266.54
180,822.44,580.00,301.28
181,822.50,581.00,329.76
182,822.57,582.00,339.57
183,822.64,583.00,355.86
184,822.71,584.00,386.76
185,822.77,585.00,392.36
186,822.84,586.00,400.89
187,822.91,587.00,429.96
188,822.98,588.00,485.96
189,823.05,589.00,520.18
190,823.11,590.00,552.32
191,823.18,591.00,644.47
192,823.25,592.00,718.05
193,823.32,593.00,857.88
194,823.38,594.00,955.43
195,823.45,595.00,1186.12
196,823.52,596.00,1346.69
197,823.59,597.00,1636.32
198,823.66,598.00,1842.12
199,823.72,599.00,2359.31
200,823.79,600.00,2571.48
201,823.86,601.00,3016.71
202,823.93,602.00,3217.65
203,823.99,603.00,3882.91
204,824.06,604.00,3866.59
205,824.13,605.00,4095.63
206,824.20,606.00,4041.26
207,824.27,607.00,4175.41
208,824.33,608.00,3858.10
209,824.40,609.00,3678.84
210,824.47,610.00,3285.52
211,824.54,611.00,3029.62
212,824.61,612.00,2602.10
213,824.67,613.00,2254.31
214,824.74,614.00,1846.36
215,824.81,615.00,1589.10
216,824.88,616.00,1288.34
217,824.95,617.00,1125.28
218,825.01,618.00,923.86
219,825.08,619.00,811.86
220,825.15,620.00,692.45
221,825.22,621.00,615.41
222,825.29,622.00,555.58
223,825.35,623.00,464.99
224,825.42,624.00,431.23
225,825.49,625.00,470.81
226,825.56,626.00,460.02
227,825.63,627.00,500.45
228,825.70,628.00,434.69
229,825.76,629.00,452.79
230,825.83,630.00,414.44
231,825.90,631.00,433.38
232,825.97,632.00,336.72
233,826.04,633.00,384.68
234,826.10,634.00,338.51
235,826.17,635.00,406.17
236,826.24,636.00,334.32
237,826.31,637.00,293.99
238,826.38,638.00,275.31
239,826.45,639.00,262.01
240,826.51,640.00,217.99
241,826.58,641.00,290.83
242,826.65,642.00,274.87
243,826.72,643.00,285.51
244,826.79,644.00,236.87
245,826.86,645.00,256.83
246,826.92,646.00,253.87
247,826.99,647.00,241.82
248,827.06,648.00,188.01
249,827.13,649.00,242.64
250,827.20,650.00,202.82
251,827.27,651.00,236.47
252,827.34,652.00,204.17
253,827.40,653.00,317.39
254,827.47,654.00,294.80
255,827.54,655.00,329.35
256,827.61,656.00,292.58
257,827.68,657.00,388.97
258,827.75,658.00,416.01
259,827.81,659.00,493.16
260,827.88,660.00,436.81
261,827.95,661.00,603.00
262,828.02,662.00,519.10
263,828.09,663.00,559.39
264,828.16,664.00,535.09
265,828.23,665.00,655.86
266,828.29,666.00,566.73
267,828.36,667.00,596.02
268,828.43,668.00,422.79
269,828.50,669.00,562.38
270,828.57,670.00,367.49
271,828.64,671.00,369.30
272,828.71,672.00,284.29
273,828.78,673.00,282.87
274,828.84,674.00,228.09
275,828.91,675.00,306.48
276,828.98,676.00,271.48
277,829.05,677.00,314.52
278,829.12,678.00,255.21
279,829.19,679.00,345.49
280,829.26,680.00,304.23
281,829.32,681.00,407.05
282,829.39,682.00,379.14
283,829.46,683.00,390.70
284,829.53,684.00,263.18
285,829.60,685.00,382.68
286,829.67,686.00,202.59
287,829.74,687.00,276.81
288,829.81,688.00,244.68
289,829.88,689.00,167.07
290,829.94,690.00,166.64
291,830.01,691.00,218.31
292,830.08,692.00,192.32
293,830.15,693.00,254.61
294,830.22,694.00,208.48
295,830.29,695.00,297.09
296,830.36,696.00,249.41
297,830.43,697.00,301.16
298,830.50,698.00,297.93
299,830.56,699.00,304.67
300,830.63,700.00,258.50
301,830.70,701.00,280.14
302,830.77,702.00,170.65
303,830.84,703.00,103.70
304,830.91,704.00,59.58
305,830.98,705.00,30.66
306,831.05,706.00,39.64
307,831.12,707.00,53.89
308,831.19,708.00,60.26
309,831.26,709.00,71.04
310,831.32,710.00,46.78
311,831.39,711.00,97.94
312,831.46,712.00,34.94
313,831.53,713.00,110.81
314,831.60,714.00,83.55
315,831.67,715.00,93.81
316,831.74,716.00,125.86
317,831.81,717.00,123.98
318,831.88,718.00,83.36
319,831.95,719.00,34.35
320,832.02,720.00,43.58
321,832.09,721.00,11.57
322,832.15,722.00,29.89
323,832.22,723.00,5.27
324,832.29,724.00,45.78
325,832.36,725.00,71.36
326,832.43,726.00,45.67
327,832.50,727.00,122.25
328,832.57,728.00,111.16
329,832.64,729.00,122.83
330,832.71,730.00,170.94
331,832.78,731.00,104.86
332,832.85,732.00,180.53
333,832.92,733.00,144.50
334,832.99,734.00,56.79
335,833.06,735.00,26.41
336,833.13,736.00,8.31
337,833.19,737.00,5.94
338,833.26,738.00,4.27
339,833.33,739.00,1.59
340,833.40,740.00,4.37
341,833.47,741.00,7.10
342,833.54,742.00,7.35
343,833.61,743.00,10.18
344,833.68,744.00,18.18
345,833.75,745.00,15.82
346,833.82,746.00,50.64
347,833.89,747.00,17.67
348,833.96,748.00,86.52
349,834.03,749.00,100.82
350,834.10,750.00,58.42
351,834.17,751.00,59.37
352,834.24,752.00,32.16
353,834.31,753.00,27.98
354,834.38,754.00,6.51
355,834.45,755.00,30.98
356,834.52,756.00,15.93
357,834.59,757.00,32.48
358,834.65,758.00,31.24
359,834.72,759.00,15.69
360,834.79,760.00,18.47
361,834.86,761.00,9.99
362,834.93,762.00,22.54
363,835.00,763.00,0.60
364,835.07,764.00,14.52
365,835.14,765.00,25.27
366,835.21,766.00,6.45
367,835.28,767.00,11.73
368,835.35,768.00,5.06
369,835.42,769.00,9.88
370,835.49,770.00,6.39
371,835.56,771.00,22.66
372,835.63,772.00,21.41
373,835.70,773.00,47.18
374,835.77,774.00,56.73
375,835.84,775.00,39.95
376,835.91,776.00,37.45
377,835.98,777.00,25.39
378,836.05,778.00,41.55
379,836.12,779.00,23.37
380,836.19,780.00,23.42
381,836.26,781.00,53.96
382,836.33,782.00,9.40
383,836.40,783.00,17.00
384,836.47,784.00,16.09
385,836.54,785.00,22.97
386,836.61,786.00,20.12
387,836.68,787.00,28.96
388,836.75,788.00,18.75
389,836.82,789.00,63.98
390,836.89,790.00,50.96
391,836.96,791.00,61.27
392,837.03,792.00,50.15
393,837.10,793.00,71.25
394,837.17,794.00,84.85
395,837.24,795.00,85.86
396,837.31,796.00,83.55
397,837.38,797.00,126.86
398,837.45,798.00,61.30
399,837.52,799.00,69.06
400,837.59,800.00,60.29
401,837.66,801.00,113.35
402,837.73,802.00,87.31
403,837.80,803.00,113.83
404,837.87,804.00,95.25
405,837.94,805.00,163.85
406,838.01,806.00,114.67
407,838.08,807.00,120.10
408,838.15,808.00,95.26
409,838.22,809.00,132.48
410,838.29,810.00,134.35
411,838.36,811.00,137.06
412,838.43,812.00,116.44
413,838.50,813.00,170.09
414,838.57,814.00,123.57
415,838.64,815.00,99.68
416,838.72,816.00,112.33
417,838.79,817.00,150.51
418,838.86,818.00,115.39
419,838.93,819.00,134.10
420,839.00,820.00,77.82
421,839.07,821.00,144.26
422,839.14,822.00,109.96
423,839.21,823.00,137.94
424,839.28,824.00,69.08
425,839.35,825.00,64.23
426,839.42,826.00,69.97
427,839.49,827.00,34.52
428,839.56,828.00,61.14
429,839.63,829.00,100.12
430,839.70,830.00,70.33
431,839.77,831.00,39.89
432,839.84,832.00,21.85
433,839.91,833.00,12.01
434,839.98,834.00,13.47
435,840.05,835.00,0.00
436,840.12,836.00,4.06
437,840.19,837.00,6.09
438,840.27,838.00,3.64
439,840.34,839.00,3.06
440,840.41,840.00,0.71
441,840.48,841.00,0.00
442,840.55,842.00,0.00
443,840.62,843.00,0.00
444,840.69,844.00,7.40
445,840.76,845.00,3.54
446,840.83,846.00,0.00
447,840.90,847.00,8.03
448,840.97,848.00,0.00
449,841.04,849.00,3.65
450,841.11,850.00,26.69
451,841.18,851.00,4.16
452,841.26,852.00,44.00
453,841.33,853.00,14.27
454,841.40,854.00,75.28
455,841.47,855.00,2.87
456,841.54,856.00,71.29
457,841.61,857.00,0.00
458,841.68,858.00,0.00
459,841.75,859.00,31.86
460,841.82,860.00,24.98
461,841.89,861.00,63.65
462,841.96,862.00,44.22
463,842.03,863.00,0.00
464,842.11,864.00,0.00
465,842.18,865.00,82.45
466,842.25,866.00,59.51
467,842.32,867.00,23.08
468,842.39,868.00,27.31
469,842.46,869.00,0.00
470,842.53,870.00,23.45
471,842.60,871.00,0.00
472,842.67,872.00,8.60
473,842.74,873.00,0.00
474,842.82,874.00,0.00
475,842.89,875.00,0.00
476,842.96,876.00,6.16
477,843.03,877.00,30.46
478,843.10,878.00,67.15
479,843.17,879.00,0.00
480,843.24,880.00,0.00
481,843.31,881.00,134.05
482,843.38,882.00,62.60
483,843.45,883.00,21.88
484,843.53,884.00,55.73
485,843.60,885.00,4.76
486,843.67,886.00,93.25
487,843.74,887.00,0.00
488,843.81,888.00,2.80
489,843.88,889.00,7.89
490,843.95,890.00,0.00
491,844.02,891.00,0.00
492,844.10,892.00,0.00
493,844.17,893.00,0.00
494,844.24,894.00,0.00
495,844.31,895.00,0.00
496,844.38,896.00,0.00
497,844.45,897.00,0.61
498,844.52,898.00,2.59
499,844.59,899.00,0.00
500,844.67,900.00,0.00
501,844.74,901.00,6.77
502,844.81,902.00,18.10
503,844.88,903.00,7.35
504,844.95,904.00,24.19
505,845.02,905.00,29.01
506,845.09,906.00,23.12
507,845.17,907.00,1.17
508,845.24,908.00,58.87
509,845.31,909.00,0.00
510,845.38,910.00,19.96
511,845.45,911.00,44.61
512,845.52,912.00,36.50
513,845.59,913.00,12.34
514,845.67,914.00,57.51
515,845.74,915.00,10.94
516,845.81,916.00,66.05
517,845.88,917.00,79.46
518,845.95,918.00,42.23
519,846.02,919.00,136.55
520,846.10,920.00,62.01
521,846.17,921.00,165.86
522,846.24,922.00,82.39
523,846.31,923.00,176.64
524,846.38,924.00,54.68
525,846.45,925.00,68.48
526,846.53,926.00,64.66
527,846.60,927.00,106.67
528,846.67,928.00,18.14
529,846.74,929.00,48.77
530,846.81,930.00,56.20
531,846.88,931.00,67.21
532,846.96,932.00,74.78
533,847.03,933.00,47.04
534,847.10,934.00,89.39
535,847.17,935.00,58.47
536,847.24,936.00,57.24
537,847.31,937.00,122.90
538,847.39,938.00,106.60
539,847.46,939.00,225.45
540,847.53,940.00,196.32
541,847.60,941.00,178.78
542,847.67,942.00,293.06
543,847.75,943.00,296.72
544,847.82,944.00,258.44
545,847.89,945.00,183.54
546,847.96,946.00,175.41
547,848.03,947.00,172.29
548,848.10,948.00,185.64
549,848.18,949.00,158.76
550,848.25,950.00,210.35
551,848.32,951.00,209.89
552,848.39,952.00,290.03
553,848.46,953.00,316.32
554,848.54,954.00,376.57
555,848.61,955.00,504.07
556,848.68,956.00,640.42
557,848.75,957.00,649.22
558,848.82,958.00,692.18
559,848.90,959.00,924.67
560,848.97,960.00,1094.38
561,849.04,961.00,1017.89
562,849.11,962.00,1002.07
563,849.18,963.00,907.80
564,849.26,964.00,731.49
565,849.33,965.00,582.19
566,849.40,966.00,400.00
567,849.47,967.00,336.00
568,849.55,968.00,199.10
569,849.62,969.00,167.10
570,849.69,970.00,115.33
571,849.76,971.00,90.07
572,849.83,972.00,82.25
573,849.91,973.00,77.81
574,849.98,974.00,87.87
575,850.05,975.00,108.16
576,850.12,976.00,151.75
577,850.20,977.00,209.47
578,850.27,978.00,381.65
579,850.34,979.00,678.45
580,850.41,980.00,1183.25
581,850.48,981.00,2378.88
582,850.56,982.00,4498.02
583,850.63,983.00,8318.55
584,850.70,984.00,14469.13
585,850.77,985.00,24786.66
586,850.85,986.00,39298.64
587,850.92,987.00,57975.63
588,850.99,988.00,78372.36
589,851.06,989.00,97378.83
590,851.14,990.00,112376.99
591,851.21,991.00,118209.58
592,851.28,992.00,115211.25
593,851.35,993.00,105330.39
594,851.43,994.00,89597.08
595,851.50,995.00,71467.83
596,851.57,996.00,55741.68
597,851.64,997.00,41063.06
598,851.72,998.00,30145.86
599,851.79,999.00,21636.66
600,851.86,1000.00,15392.58
601,851.93,1001.00,11522.16
602,852.01,1002.00,8534.53
603,852.08,1003.00,6640.34
604,852.15,1004.00,5442.12
605,852.22,1005.00,4618.20
606,852.30,1006.00,3963.55
607,852.37,1007.00,3767.02
608,852.44,1008.00,3618.98
609,852.51,1009.00,3456.47
610,852.59,1010.00,3671.74
611,852.66,1011.00,3619.05
612,852.73,1012.00,3623.78
613,852.81,1013.00,3631.42
614,852.88,1014.00,3490.46
615,852.95,1015.00,3353.05
616,853.02,1016.00,3236.11
617,853.10,1017.00,2873.46
618,853.17,1018.00,2535.65
619,853.24,1019.00,2259.84
620,853.32,1020.00,1922.61
621,853.39,1021.00,1481.14
622,853.46,1022.00,1272.14
623,853.53,1023.00,1152.63
624,853.61,1024.00,913.56
625,853.68,1025.00,760.76
626,853.75,1026.00,630.45
627,853.83,1027.00,573.68
628,853.90,1028.00,525.86
629,853.97,1029.00,434.39
630,854.04,1030.00,383.11
631,854.12,1031.00,389.48
632,854.19,1032.00,371.20
633,854.26,1033.00,350.33
634,854.34,1034.00,370.23
635,854.41,1035.00,400.47
636,854.48,1036.00,335.71
637,854.55,1037.00,326.59
638,854.63,1038.00,350.65
639,854.70,1039.00,444.29
640,854.77,1040.00,445.20
641,854.85,1041.00,453.65
642,854.92,1042.00,408.78
643,854.99,1043.00,359.14
644,855.07,1044.00,291.61
645,855.14,1045.00,330.04
646,855.21,1046.00,308.01
647,855.29,1047.00,399.64
648,855.36,1048.00,323.36
649,855.43,1049.00,301.57
650,855.51,1050.00,244.81
651,855.58,1051.00,327.96
652,855.65,1052.00,162.11
653,855.72,1053.00,189.84
654,855.80,1054.00,247.36
655,855.87,1055.00,247.86
656,855.94,1056.00,233.60
657,856.02,1057.00,229.67
658,856.09,1058.00,172.09
659,856.16,1059.00,156.21
660,856.24,1060.00,102.07
661,856.31,1061.00,55.47
662,856.38,1062.00,69.43
663,856.46,1063.00,82.44
664,856.53,1064.00,50.44
665,856.60,1065.00,56.84
666,856.68,1066.00,62.80
667,856.75,1067.00,52.12
668,856.82,1068.00,60.31
669,856.90,1069.00,46.34
670,856.97,1070.00,87.20
671,857.04,1071.00,94.85
672,857.12,1072.00,142.73
673,857.19,1073.00,102.89
674,857.27,1074.00,145.59
675,857.34,1075.00,104.51
676,857.41,1076.00,69.00
677,857.49,1077.00,78.49
678,857.56,1078.00,86.31
679,857.63,1079.00,59.93
680,857.71,1080.00,74.22
681,857.78,1081.00,66.40
682,857.85,1082.00,119.45
683,857.93,1083.00,50.65
684,858.00,1084.00,92.45
685,858.07,1085.00,87.71
686,858.15,1086.00,196.18
687,858.22,1087.00,130.62
688,858.30,1088.00,222.51
689,858.37,1089.00,156.21
690,858.44,1090.00,188.94
691,858.52,1091.00,152.37
692,858.59,1092.00,99.93
693,858.66,1093.00,90.04
694,858.74,1094.00,80.72
695,858.81,1095.00,44.99
696,858.89,1096.00,17.44
697,858.96,1097.00,21.06
698,859.03,1098.00,25.93
699,859.11,1099.00,4.76
700,859.18,1100.00,35.84
701,859.25,1101.00,21.50
702,859.33,1102.00,22.74
703,859.40,1103.00,48.03
704,859.48,1104.00,43.22
705,859.55,1105.00,42.38
706,859.62,1106.00,13.50
707,859.70,1107.00,71.62
708,859.77,1108.00,93.43
709,859.85,1109.00,53.83
710,859.92,1110.00,129.26
711,859.99,1111.00,72.79
712,860.07,1112.00,149.88
713,860.14,1113.00,75.83
714,860.22,1114.00,98.23
715,860.29,1115.00,98.34
716,860.36,1116.00,106.43
717,860.44,1117.00,37.28
718,860.51,1118.00,49.73
719,860.59,1119.00,65.47
720,860.66,1120.00,59.28
721,860.73,1121.00,76.01
722,860.81,1122.00,45.91
723,860.88,1123.00,20.02
724,860.96,1124.00,34.78
725,861.03,1125.00,52.05
726,861.10,1126.00,75.18
727,861.18,1127.00,57.69
728,861.25,1128.00,74.23
729,861.33,1129.00,96.63
730,861.40,1130.00,104.88
731,861.47,1131.00,148.44
732,861.55,1132.00,196.78
733,861.62,1133.00,192.47
734,861.70,1134.00,255.35
735,861.77,1135.00,279.48
736,861.85,1136.00,260.38
737,861.92,1137.00,330.34
738,861.99,1138.00,323.96
739,862.07,1139.00,368.14
740,862.14,1140.00,375.32
741,862.22,1141.00,379.95
742,862.29,1142.00,456.74
743,862.37,1143.00,436.07
744,862.44,1144.00,445.27
745,862.52,1145.00,453.25
746,862.59,1146.00,436.05
747,862.66,1147.00,467.62
748,862.74,1148.00,452.36
749,862.81,1149.00,468.93
750,862.89,1150.00,443.57
751,862.96,1151.00,444.10
752,863.04,1152.00,493.63
753,863.11,1153.00,507.78
754,863.19,1154.00,474.85
755,863.26,1155.00,495.67
756,863.33,1156.00,519.21
757,863.41,1157.00,574.75
758,863.48,1158.00,568.62
759,863.56,1159.00,672.22
760,863.63,1160.00,738.26
761,863.71,1161.00,773.35
762,863.78,1162.00,848.26
763,863.86,1163.00,1049.33
764,863.93,1164.00,1161.92
765,864.01,1165.00,1428.15
766,864.08,1166.00,1726.89
767,864.15,1167.00,2159.59
768,864.23,1168.00,2564.62
769,864.30,1169.00,3169.95
770,864.38,1170.00,3784.91
771,864.45,1171.00,4837.71
772,864.53,1172.00,5358.05
773,864.60,1173.00,6411.93
774,864.68,1174.00,7095.02
775,864.75,1175.00,7727.95
776,864.83,1176.00,7699.08
777,864.90,1177.00,8075.88
778,864.98,1178.00,7988.81
779,865.05,1179.00,7411.74
780,865.13,1180.00,6677.00
781,865.20,1181.00,6122.58
782,865.28,1182.00,5286.43
783,865.35,1183.00,4405.77
784,865.43,1184.00,3772.37
785,865.50,1185.00,3101.21
786,865.58,1186.00,2587.99
787,865.65,1187.00,2208.40
788,865.73,1188.00,1896.45
789,865.80,1189.00,1565.86
790,865.88,1190.00,1314.55
791,865.95,1191.00,1145.69
792,866.03,1192.00,996.80
793,866.10,1193.00,887.93
794,866.18,1194.00,806.38
795,866.25,1195.00,728.28
796,866.33,1196.00,700.31
797,866.40,1197.00,683.01
798,866.48,1198.00,682.64
799,866.55,1199.00,625.54
800,866.63,1200.00,623.92
801,866.70,1201.00,664.29
802,866.78,1202.00,610.15
803,866.85,1203.00,604.49
804,866.93,1204.00,567.21
805,867.00,1205.00,616.70
806,867.08,1206.00,542.36
807,867.15,1207.00,509.93
808,867.23,1208.00,437.26
809,867.30,1209.00,437.34
810,867.38,1210.00,392.55
811,867.45,1211.00,402.60
812,867.53,1212.00,349.21
813,867.60,1213.00,333.56
814,867.68,1214.00,269.99
815,867.75,1215.00,241.92
816,867.83,1216.00,250.99
817,867.90,1217.00,318.51
818,867.98,1218.00,287.31
819,868.06,1219.00,284.48
820,868.13,1220.00,294.44
821,868.21,1221.00,297.76
822,868.28,1222.00,343.61
823,868.36,1223.00,353.50
824,868.43,1224.00,393.80
825,868.51,1225.00,430.35
826,868.58,1226.00,433.18
827,868.66,1227.00,500.90
828,868.73,1228.00,505.03
829,868.81,1229.00,534.57
830,868.89,1230.00,565.54
831,868.96,1231.00,573.19
832,869.04,1232.00,458.54
833,869.11,1233.00,506.24
834,869.19,1234.00,442.86
835,869.26,1235.00,447.13
836,869.34,1236.00,380.67
837,869.41,1237.00,396.92
838,869.49,1238.00,371.10
839,869.57,1239.00,277.01
840,869.64,1240.00,318.81
841,869.72,1241.00,346.09
842,869.79,1242.00,289.23
843,869.87,1243.00,278.50
844,869.94,1244.00,280.13
845,870.02,1245.00,288.59
846,870.09,1246.00,280.61
847,870.17,1247.00,238.54
848,870.25,1248.00,194.58
849,870.32,1249.00,209.21
850,870.40,1250.00,147.43
851,870.47,1251.00,195.82
852,870.55,1252.00,213.84
853,870.63,1253.00,148.32
854,870.70,1254.00,155.88
855,870.78,1255.00,163.05
856,870.85,1256.00,156.40
857,870.93,1257.00,228.99
858,871.00,1258.00,188.19
859,871.08,1259.00,207.08
860,871.16,1260.00,177.39
861,871.23,1261.00,251.06
862,871.31,1262.00,163.16
863,871.38,1263.00,267.17
864,871.46,1264.00,243.17
865,871.54,1265.00,164.16
866,871.61,1266.00,184.41
867,871.69,1267.00,249.11
868,871.76,1268.00,250.83
869,871.84,1269.00,294.98
870,871.92,1270.00,263.76
871,871.99,1271.00,360.22
872,872.07,1272.00,271.16
873,872.14,1273.00,333.39
874,872.22,1274.00,315.81
875,872.30,1275.00,331.70
876,872.37,1276.00,307.07
877,872.45,1277.00,378.93
878,872.52,1278.00,247.66
879,872.60,1279.00,192.59
880,872.68,1280.00,121.22
881,872.75,1281.00,93.72
882,872.83,1282.00,126.11
883,872.91,1283.00,155.48
884,872.98,1284.00,153.66
885,873.06,1285.00,163.38
886,873.13,1286.00,113.28
887,873.21,1287.00,194.54
888,873.29,1288.00,104.75
889,873.36,1289.00,233.58
890,873.44,1290.00,183.64
891,873.52,1291.00,267.57
892,873.59,1292.00,233.94
893,873.67,1293.00,298.85
894,873.74,1294.00,205.38
895,873.82,1295.00,159.93
896,873.90,1296.00,165.04
897,873.97,1297.00,127.58
898,874.05,1298.00,141.22
899,874.13,1299.00,131.94
900,874.20,1300.00,132.45
901,874.28,1301.00,221.13
902,874.36,1302.00,154.24
903,874.43,1303.00,272.47
904,874.51,1304.00,203.56
905,874.58,1305.00,216.47
906,874.66,1306.00,274.15
907,874.74,1307.00,243.99
908,874.81,1308.00,280.13
909,874.89,1309.00,225.61
910,874.97,1310.00,125.56
911,875.04,1311.00,61.34
912,875.12,1312.00,24.58
913,875.20,1313.00,36.94
914,875.27,1314.00,28.84
915,875.35,1315.00,20.12
916,875.43,1316.00,19.91
917,875.50,1317.00,32.79
918,875.58,1318.00,21.00
919,875.66,1319.00,22.40
920,875.73,1320.00,15.40
921,875.81,1321.00,21.87
922,875.89,1322.00,43.02
923,875.96,1323.00,19.09
924,876.04,1324.00,56.57
925,876.12,1325.00,94.18
926,876.19,1326.00,49.71
927,876.27,1327.00,72.13
928,876.35,1328.00,56.92
929,876.42,1329.00,72.50
930,876.50,1330.00,68.87
931,876.58,1331.00,82.46
932,876.65,1332.00,68.00
933,876.73,1333.00,101.49
934,876.81,1334.00,66.69
935,876.89,1335.00,54.32
936,876.96,1336.00,28.50
937,877.04,1337.00,34.35
938,877.12,1338.00,48.12
939,877.19,1339.00,22.35
940,877.27,1340.00,34.55
941,877.35,1341.00,59.17
942,877.42,1342.00,25.08
943,877.50,1343.00,45.92
944,877.58,1344.00,48.58
945,877.65,1345.00,39.88
946,877.73,1346.00,46.39
947,877.81,1347.00,51.22
948,877.89,1348.00,56.38
949,877.96,1349.00,80.41
950,878.04,1350.00,52.72
951,878.12,1351.00,49.20
952,878.19,1352.00,38.88
953,878.27,1353.00,20.12
954,878.35,1354.00,45.67
955,878.43,1355.00,10.43
956,878.50,1356.00,26.92
957,878.58,1357.00,44.38
958,878.66,1358.00,13.67
959,878.73,1359.00,12.13
960,878.81,1360.00,16.44
961,878.89,1361.00,6.50
962,878.97,1362.00,13.20
963,879.04,1363.00,18.14
964,879.12,1364.00,26.77
965,879.20,1365.00,36.24
966,879.28,1366.00,30.89
967,879.35,1367.00,27.69
968,879.43,1368.00,23.76
969,879.51,1369.00,9.53
970,879.58,1370.00,24.31
971,879.66,1371.00,1.75
972,879.74,1372.00,10.68
973,879.82,1373.00,36.53
974,879.89,1374.00,10.47
975,879.97,1375.00,7.36
976,880.05,1376.00,10.85
977,880.13,1377.00,5.13
978,880.20,1378.00,6.86
979,880.28,1379.00,19.28
980,880.36,1380.00,16.28
981,880.44,1381.00,38.02
982,880.51,1382.00,43.76
983,880.59,1383.00,50.46
984,880.67,1384.00,22.51
985,880.75,1385.00,30.21
986,880.82,1386.00,39.02
987,880.90,1387.00,13.31
988,880.98,1388.00,30.74
989,881.06,1389.00,70.36
990,881.13,1390.00,22.46
991,881.21,1391.00,24.73
992,881.29,1392.00,21.07
993,881.37,1393.00,21.58
994,881.45,1394.00,27.89
995,881.52,1395.00,36.07
996,881.60,1396.00,31.42
997,881.68,1397.00,60.48
998,881.76,1398.00,47.39
999,881.83,1399.00,57.87
1000,881.91,1400.00,31.88
1001,881.99,1401.00,19.10
1002,882.07,1402.00,43.81
1003,882.15,1403.00,20.09
1004,882.22,1404.00,49.17
1005,882.30,1405.00,69.45
1006,882.38,1406.00,17.88
1007,882.46,1407.00,35.15
1008,882.53,1408.00,27.41
1009,882.61,1409.00,14.44
1010,882.69,1410.00,19.92
1011,882.77,1411.00,38.23
1012,882.85,1412.00,25.96
1013,882.92,1413.00,37.62
1014,883.00,1414.00,32.48
1015,883.08,1415.00,28.73
1016,883.16,1416.00,18.14
1017,883.24,1417.00,5.37
1018,883.31,1418.00,20.16
1019,883.39,1419.00,1.93
1020,883.47,1420.00,20.29
1021,883.55,1421.00,43.54
1022,883.63,1422.00,9.60
1023,883.70,1423.00,20.69
1024,883.78,1424.00,8.11
1025,883.86,1425.00,10.52
1026,883.94,1426.00,31.38
1027,884.02,1427.00,31.49
1028,884.10,1428.00,27.13
1029,884.17,1429.00,43.29
1030,884.25,1430.00,25.15
1031,884.33,1431.00,33.55
1032,884.41,1432.00,13.30
1033,884.49,1433.00,0.00
1034,884.56,1434.00,35.71
1035,884.64,1435.00,0.00
1036,884.72,1436.00,29.24
1037,884.80,1437.00,57.19
1038,884.88,1438.00,15.92
1039,884.96,1439.00,21.42
1040,885.03,1440.00,10.10
1041,885.11,1441.00,2.30
1042,885.19,1442.00,14.48
1043,885.27,1443.00,21.25
1044,885.35,1444.00,22.15
1045,885.43,1445.00,28.90
1046,885.50,1446.00,9.63
1047,885.58,1447.00,31.44
1048,885.66,1448.00,6.52
1049,885.74,1449.00,0.00
1050,885.82,1450.00,31.88
1051,885.90,1451.00,0.00
1052,885.98,1452.00,19.10
1053,886.05,1453.00,41.21
1054,886.13,1454.00,5.54
1055,886.21,1455.00,11.66
1056,886.29,1456.00,8.98
1057,886.37,1457.00,2.82
1058,886.45,1458.00,5.61
1059,886.52,1459.00,2.40
1060,886.60,1460.00,5.55
1061,886.68,1461.00,7.43
1062,886.76,1462.00,2.53
1063,886.84,1463.00,11.61
1064,886.92,1464.00,9.86
1065,887.00,1465.00,5.37
1066,887.08,1466.00,41.31
1067,887.15,1467.00,21.63
1068,887.23,1468.00,61.24
1069,887.31,1469.00,87.37
1070,887.39,1470.00,54.23
1071,887.47,1471.00,40.11
1072,887.55,1472.00,56.06
1073,887.63,1473.00,60.48
1074,887.71,1474.00,49.54
1075,887.78,1475.00,38.78
1076,887.86,1476.00,26.00
1077,887.94,1477.00,17.59
1078,888.02,1478.00,19.73
1079,888.10,1479.00,28.31
1080,888.18,1480.00,28.93
1081,888.26,1481.00,31.19
1082,888.34,1482.00,60.43
1083,888.42,1483.00,52.11
1084,888.49,1484.00,80.52
1085,888.57,1485.00,91.45
1086,888.65,1486.00,99.45
1087,888.73,1487.00,58.66
1088,888.81,1488.00,110.74
1089,888.89,1489.00,134.45
1090,888.97,1490.00,115.75
1091,889.05,1491.00,87.84
1092,889.13,1492.00,76.17
1093,889.21,1493.00,104.27
1094,889.28,1494.00,87.71
1095,889.36,1495.00,72.00
1096,889.44,1496.00,63.98
1097,889.52,1497.00,88.55
1098,889.60,1498.00,115.19
1099,889.68,1499.00,95.49
1100,889.76,1500.00,125.70
1101,889.84,1501.00,151.43
1102,889.92,1502.00,184.76
1103,890.00,1503.00,88.99
1104,890.08,1504.00,166.15
1105,890.15,1505.00,240.55
1106,890.23,1506.00,185.46
1107,890.31,1507.00,221.13
1108,890.39,1508.00,139.55
1109,890.47,1509.00,252.88
1110,890.55,1510.00,215.98
1111,890.63,1511.00,129.20
1112,890.71,1512.00,152.65
1113,890.79,1513.00,162.35
1114,890.87,1514.00,182.52
1115,890.95,1515.00,144.71
1116,891.03,1516.00,154.40
1117,891.11,1517.00,188.02
1118,891.19,1518.00,218.52
1119,891.27,1519.00,163.51
1120,891.35,1520.00,236.39
1121,891.42,1521.00,280.38
1122,891.50,1522.00,224.14
1123,891.58,1523.00,233.97
1124,891.66,1524.00,182.81
1125,891.74,1525.00,289.64
1126,891.82,1526.00,283.81
1127,891.90,1527.00,229.49
1128,891.98,1528.00,275.32
1129,892.06,1529.00,260.71
1130,892.14,1530.00,288.20
1131,892.22,1531.00,306.30
1132,892.30,1532.00,264.44
1133,892.38,1533.00,317.36
1134,892.46,1534.00,334.50
1135,892.54,1535.00,292.64
1136,892.62,1536.00,293.60
1137,892.70,1537.00,259.08
1138,892.78,1538.00,239.80
1139,892.86,1539.00,196.52
1140,892.94,1540.00,168.55
1141,893.02,1541.00,199.75
1142,893.10,1542.00,224.27
1143,893.18,1543.00,166.09
1144,893.26,1544.00,228.41
1145,893.34,1545.00,219.20
1146,893.42,1546.00,260.21
1147,893.50,1547.00,307.16
1148,893.58,1548.00,349.56
1149,893.66,1549.00,390.77
1150,893.73,1550.00,434.86
1151,893.81,1551.00,419.75
1152,893.89,1552.00,490.75
1153,893.97,1553.00,464.95
1154,894.05,1554.00,518.90
1155,894.13,1555.00,523.45
1156,894.21,1556.00,486.53
1157,894.29,1557.00,426.44
1158,894.37,1558.00,458.04
1159,894.45,1559.00,427.35
1160,894.53,1560.00,436.90
1161,894.61,1561.00,368.51
1162,894.69,1562.00,422.89
1163,894.77,1563.00,380.77
1164,894.85,1564.00,398.70
1165,894.93,1565.00,415.01
1166,895.01,1566.00,422.48
1167,895.09,1567.00,351.95
1168,895.18,1568.00,437.00
1169,895.26,1569.00,513.55
1170,895.34,1570.00,516.80
1171,895.42,1571.00,519.25
1172,895.50,1572.00,584.00
1173,895.58,1573.00,656.80
1174,895.66,1574.00,720.63
1175,895.74,1575.00,836.07
1176,895.82,1576.00,967.73
1177,895.90,1577.00,1040.88
1178,895.98,1578.00,1173.69
1179,896.06,1579.00,1376.28
1180,896.14,1580.00,1510.07
1181,896.22,1581.00,1668.99
1182,896.30,1582.00,1835.45
1183,896.38,1583.00,2057.88
1184,896.46,1584.00,2156.36
1185,896.54,1585.00,2355.65
1186,896.62,1586.00,2347.30
1187,896.70,1587.00,2528.79
1188,896.78,1588.00,2513.98
1189,896.86,1589.00,2545.48
1190,896.94,1590.00,2450.08
1191,897.02,1591.00,2541.69
1192,897.10,1592.00,2381.41
1193,897.18,1593.00,2424.21
1194,897.26,1594.00,2277.28
1195,897.34,1595.00,2348.47
1196,897.42,1596.00,2239.62
1197,897.50,1597.00,2183.92
1198,897.59,1598.00,2108.48
1199,897.67,1599.00,2129.05
1200,897.75,1600.00,2071.21
1201,897.83,1601.00,2067.47
1202,897.91,1602.00,1975.99
1203,897.99,1603.00,2043.36
1204,898.07,1604.00,1887.46
1205,898.15,1605.00,1866.14
1206,898.23,1606.00,1731.88
1207,898.31,1607.00,1682.77
1208,898.39,1608.00,1494.45
1209,898.47,1609.00,1484.24
1210,898.55,1610.00,1348.60
1211,898.63,1611.00,1264.62
1212,898.71,1612.00,1155.49
1213,898.80,1613.00,1028.06
1214,898.88,1614.00,972.70
1215,898.96,1615.00,849.47
1216,899.04,1616.00,763.65
1217,899.12,1617.00,732.42
1218,899.20,1618.00,702.02
1219,899.28,1619.00,710.60
1220,899.36,1620.00,629.74
1221,899.44,1621.00,636.92
1222,899.52,1622.00,618.82
1223,899.60,1623.00,636.67
1224,899.69,1624.00,540.20
1225,899.77,1625.00,559.60
1226,899.85,1626.00,530.51
1227,899.93,1627.00,579.14
1228,900.01,1628.00,521.04
1229,900.09,1629.00,495.09
1230,900.17,1630.00,479.35
1231,900.25,1631.00,511.89
1232,900.33,1632.00,443.80
1233,900.41,1633.00,484.23
1234,900.50,1634.00,460.22
1235,900.58,1635.00,489.07
1236,900.66,1636.00,418.32
1237,900.74,1637.00,431.42
1238,900.82,1638.00,423.82
1239,900.90,1639.00,416.39
1240,900.98,1640.00,381.38
1241,901.06,1641.00,445.39
1242,901.14,1642.00,404.38
1243,901.23,1643.00,448.53
1244,901.31,1644.00,398.98
1245,901.39,1645.00,477.01
1246,901.47,1646.00,447.35
1247,901.55,1647.00,476.00
1248,901.63,1648.00,385.11
1249,901.71,1649.00,483.87
1250,901.79,1650.00,452.44
1251,901.88,1651.00,530.13
1252,901.96,1652.00,465.95
1253,902.04,1653.00,546.07
1254,902.12,1654.00,445.79
1255,902.20,1655.00,492.43
1256,902.28,1656.00,451.41
1257,902.36,1657.00,562.75
1258,902.45,1658.00,482.66
1259,902.53,1659.00,498.18
1260,902.61,1660.00,354.79
1261,902.69,1661.00,459.59
1262,902.77,1662.00,291.86
1263,902.85,1663.00,320.03
1264,902.93,1664.00,236.32
1265,903.02,1665.00,204.03
1266,903.10,1666.00,205.68
1267,903.18,1667.00,229.97
1268,903.26,1668.00,255.72
1269,903.34,1669.00,250.01
1270,903.42,1670.00,225.97
1271,903.51,1671.00,284.68
1272,903.59,1672.00,229.64
1273,903.67,1673.00,313.47
1274,903.75,1674.00,277.86
1275,903.83,1675.00,310.60
1276,903.91,1676.00,239.43
1277,904.00,1677.00,294.07
1278,904.08,1678.00,158.96
1279,904.16,1679.00,196.06
1280,904.24,1680.00,123.89
1281,904.32,1681.00,85.88
1282,904.40,1682.00,87.98
1283,904.49,1683.00,120.70
1284,904.57,1684.00,123.75
1285,904.65,1685.00,163.10
1286,904.73,1686.00,140.86
1287,904.81,1687.00,187.52
1288,904.90,1688.00,140.32
1289,904.98,1689.00,203.26
1290,905.06,1690.00,164.09
1291,905.14,1691.00,171.14
1292,905.22,1692.00,148.08
1293,905.31,1693.00,190.06
1294,905.39,1694.00,111.10
1295,905.47,1695.00,67.03
1296,905.55,1696.00,37.03
1297,905.63,1697.00,27.27
1298,905.72,1698.00,21.78
1299,905.80,1699.00,43.48
1300,905.88,1700.00,47.64
1301,905.96,1701.00,75.91
1302,906.04,1702.00,59.88
1303,906.13,1703.00,116.10
1304,906.21,1704.00,57.12
1305,906.29,1705.00,94.83
1306,906.37,1706.00,82.83
1307,906.45,1707.00,109.19
1308,906.54,1708.00,127.14
1309,906.62,1709.00,117.49
1310,906.70,1710.00,54.98
1311,906.78,1711.00,24.65
1312,906.87,1712.00,14.42
1313,906.95,1713.00,12.18
1314,907.03,1714.00,14.40
1315,907.11,1715.00,8.54
1316,907.19,1716.00,23.19
1317,907.28,1717.00,36.96
1318,907.36,1718.00,20.46
1319,907.44,1719.00,57.24
1320,907.52,1720.00,43.73
1321,907.61,1721.00,46.52
1322,907.69,1722.00,92.11
1323,907.77,1723.00,54.88
1324,907.85,1724.00,144.32
1325,907.94,1725.00,144.50
1326,908.02,1726.00,69.22
1327,908.10,1727.00,29.63
1328,908.18,1728.00,5.13
1329,908.27,1729.00,28.04
1330,908.35,1730.00,23.19
1331,908.43,1731.00,18.57
1332,908.51,1732.00,28.12
1333,908.60,1733.00,40.33
1334,908.68,1734.00,29.10
1335,908.76,1735.00,25.88
1336,908.84,1736.00,15.42
1337,908.93,1737.00,8.96
1338,909.01,1738.00,33.57
1339,909.09,1739.00,2.79
1340,909.17,1740.00,37.55
1341,909.26,1741.00,57.51
1342,909.34,1742.00,23.03
1343,909.42,1743.00,27.12
1344,909.50,1744.00,22.26
1345,909.59,1745.00,27.50
1346,909.67,1746.00,23.35
1347,909.75,1747.00,33.44
1348,909.84,1748.00,34.54
1349,909.92,1749.00,48.30
1350,910.00,1750.00,38.75
1351,910.08,1751.00,22.11
1352,910.17,1752.00,12.27
1353,910.25,1753.00,5.82
1354,910.33,1754.00,26.71
1355,910.42,1755.00,0.00
1356,910.50,1756.00,16.81
1357,910.58,1757.00,33.86
1358,910.66,1758.00,13.50
1359,910.75,1759.00,15.62
1360,910.83,1760.00,19.32
1361,910.91,1761.00,10.68
1362,911.00,1762.00,10.36
1363,911.08,1763.00,19.66
1364,911.16,1764.00,26.07
1365,911.24,1765.00,36.13
1366,911.33,1766.00,35.01
1367,911.41,1767.00,19.39
1368,911.49,1768.00,19.43
1369,911.58,1769.00,2.98
1370,911.66,1770.00,30.43
1371,911.74,1771.00,0.00
1372,911.83,1772.00,15.46
1373,911.91,1773.00,41.53
1374,911.99,1774.00,16.87
1375,912.08,1775.00,13.06
1376,912.16,1776.00,25.06
1377,912.24,1777.00,13.15
1378,912.33,1778.00,7.36
1379,912.41,1779.00,21.52
1380,912.49,1780.00,24.94
1381,912.58,1781.00,27.81
1382,912.66,1782.00,36.92
1383,912.74,1783.00,18.57
1384,912.83,1784.00,23.51
1385,912.91,1785.00,7.82
1386,912.99,1786.00,22.65
1387,913.08,1787.00,0.00
1388,913.16,1788.00,11.67
1389,913.24,1789.00,30.31
1390,913.33,1790.00,7.24
1391,913.41,1791.00,8.22
1392,913.49,1792.00,10.18
1393,913.58,1793.00,7.24
1394,913.66,1794.00,1.47
1395,913.74,1795.00,14.58
1396,913.83,1796.00,18.39
1397,913.91,1797.00,29.37
1398,913.99,1798.00,39.62
1399,914.08,1799.00,30.60
1400,914.16,1800.00,32.18
1401,914.24,1801.00,12.62
1402,914.33,1802.00,36.74
1403,914.41,1803.00,4.64
1404,914.49,1804.00,30.62
1405,914.58,1805.00,49.61
1406,914.66,1806.00,15.00
1407,914.75,1807.00,17.55
1408,914.83,1808.00,18.82
1409,914.91,1809.00,15.09
1410,915.00,1810.00,2.59
1411,915.08,1811.00,27.87
1412,915.16,1812.00,22.80
1413,915.25,1813.00,33.32
1414,915.33,1814.00,39.50
1415,915.42,1815.00,30.96
1416,915.50,1816.00,33.85
1417,915.58,1817.00,13.43
1418,915.67,1818.00,29.07
1419,915.75,1819.00,0.00
1420,915.83,1820.00,19.46
1421,915.92,1821.00,48.84
1422,916.00,1822.00,16.71
1423,916.09,1823.00,18.49
1424,916.17,1824.00,15.13
1425,916.25,1825.00,1.70
1426,916.34,1826.00,3.30
1427,916.42,1827.00,5.85
1428,916.51,1828.00,15.46
1429,916.59,1829.00,28.19
1430,916.67,1830.00,38.12
1431,916.76,1831.00,25.76
1432,916.84,1832.00,36.08
1433,916.93,1833.00,20.96
1434,917.01,1834.00,49.32
1435,917.09,1835.00,6.93
1436,917.18,1836.00,24.48
1437,917.26,1837.00,47.21
1438,917.35,1838.00,15.69
1439,917.43,1839.00,10.12
1440,917.52,1840.00,10.55
1441,917.60,1841.00,0.09
1442,917.68,1842.00,0.00
1443,917.77,1843.00,12.62
1444,917.85,1844.00,11.24
1445,917.94,1845.00,35.51
1446,918.02,1846.00,29.60
1447,918.11,1847.00,36.32
1448,918.19,1848.00,29.49
1449,918.27,1849.00,5.57
1450,918.36,1850.00,18.40
1451,918.44,1851.00,0.00
1452,918.53,1852.00,3.52
1453,918.61,1853.00,33.53
1454,918.70,1854.00,12.37
1455,918.78,1855.00,5.61
1456,918.86,1856.00,12.75
1457,918.95,1857.00,12.24
1458,919.03,1858.00,4.63
1459,919.12,1859.00,14.56
1460,919.20,1860.00,23.48
1461,919.29,1861.00,48.24
1462,919.37,1862.00,55.91
1463,919.46,1863.00,50.14
1464,919.54,1864.00,37.70
1465,919.62,1865.00,32.57
1466,919.71,1866.00,49.57
1467,919.79,1867.00,8.20
1468,919.88,1868.00,31.00
1469,919.96,1869.00,60.09
1470,920.05,1870.00,10.99
1471,920.13,1871.00,17.99
1472,920.22,1872.00,13.32
1473,920.30,1873.00,11.60
1474,920.39,1874.00,14.33
1475,920.47,1875.00,30.68
1476,920.56,1876.00,32.28
1477,920.64,1877.00,49.30
1478,920.73,1878.00,50.52
1479,920.81,1879.00,43.80
1480,920.90,1880.00,38.15
1481,920.98,1881.00,17.10
1482,921.06,1882.00,36.63
1483,921.15,1883.00,9.24
1484,921.23,1884.00,28.49
1485,921.32,1885.00,54.61
1486,921.40,1886.00,14.03
1487,921.49,1887.00,19.03
1488,921.57,1888.00,22.12
1489,921.66,1889.00,17.30
1490,921.74,1890.00,15.62
1491,921.83,1891.00,35.80
1492,921.91,1892.00,27.39
1493,922.00,1893.00,44.39
1494,922.08,1894.00,42.34
1495,922.17,1895.00,33.49
1496,922.25,1896.00,31.65
1497,922.34,1897.00,13.72
1498,922.42,1898.00,38.25
1499,922.51,1899.00,0.00
1500,922.59,1900.00,23.56
1501,922.68,1901.00,58.90
1502,922.76,1902.00,24.23
1503,922.85,1903.00,17.06
1504,922.93,1904.00,28.65
1505,923.02,1905.00,15.51
1506,923.11,1906.00,15.50
1507,923.19,1907.00,30.77
1508,923.28,1908.00,36.63
1509,923.36,1909.00,45.47
1510,923.45,1910.00,40.63
1511,923.53,1911.00,33.47
1512,923.62,1912.00,27.59
1513,923.70,1913.00,13.10
1514,923.79,1914.00,26.14
1515,923.87,1915.00,1.61
1516,923.96,1916.00,12.21
1517,924.04,1917.00,37.16
1518,924.13,1918.00,13.61
1519,924.21,1919.00,4.44
1520,924.30,1920.00,17.56
1521,924.39,1921.00,10.92
1522,924.47,1922.00,8.72
1523,924.56,1923.00,26.22
1524,924.64,1924.00,28.39
1525,924.73,1925.00,45.90
1526,924.81,1926.00,46.36
1527,924.90,1927.00,43.95
1528,924.98,1928.00,34.82
1529,925.07,1929.00,26.12
1530,925.16,1930.00,37.48
1531,925.24,1931.00,11.77
1532,925.33,1932.00,22.64
1533,925.41,1933.00,61.26
1534,925.50,1934.00,22.68
1535,925.58,1935.00,18.12
1536,925.67,1936.00,23.10
1537,925.75,1937.00,11.65
1538,925.84,1938.00,8.24
1539,925.93,1939.00,20.13
1540,926.01,1940.00,16.53
1541,926.10,1941.00,33.29
1542,926.18,1942.00,42.67
1543,926.27,1943.00,32.81
1544,926.35,1944.00,32.32
1545,926.44,1945.00,32.12
1546,926.53,1946.00,47.93
1547,926.61,1947.00,15.88
1548,926.70,1948.00,36.34
1549,926.78,1949.00,76.55
1550,926.87,1950.00,24.56
1551,926.96,1951.00,34.42
1552,927.04,1952.00,32.29
1553,927.13,1953.00,18.36
1554,927.21,1954.00,19.87
1555,927.30,1955.00,38.35
1556,927.39,1956.00,28.47
1557,927.47,1957.00,51.73
1558,927.56,1958.00,46.87
1559,927.64,1959.00,41.02
1560,927.73,1960.00,39.99
1561,927.82,1961.00,25.63
1562,927.90,1962.00,38.44
1563,927.99,1963.00,18.27
1564,928.07,1964.00,23.72
1565,928.16,1965.00,54.85
1566,928.25,1966.00,18.65
1567,928.33,1967.00,19.75
1568,928.42,1968.00,21.11
1569,928.51,1969.00,6.14
1570,928.59,1970.00,12.49
1571,928.68,1971.00,21.56
1572,928.76,1972.00,22.20
1573,928.85,1973.00,48.15
1574,928.94,1974.00,46.87
1575,929.02,1975.00,46.76
1576,929.11,1976.00,37.18
1577,929.20,1977.00,27.80
1578,929.28,1978.00,39.40
1579,929.37,1979.00,10.87
1580,929.45,1980.00,19.75
1581,929.54,1981.00,53.07
1582,929.63,1982.00,17.30
1583,929.71,1983.00,9.96
1584,929.80,1984.00,16.02
1585,929.89,1985.00,8.24
1586,929.97,1986.00,11.96
1587,930.06,1987.00,19.14
1588,930.15,1988.00,27.26
1589,930.23,1989.00,45.44
1590,930.32,1990.00,39.79
1591,930.41,1991.00,41.57
1592,930.49,1992.00,32.34
1593,930.58,1993.00,27.45
1594,930.67,1994.00,55.17
1595,930.75,1995.00,18.50
1596,930.84,1996.00,36.77
1597,930.93,1997.00,77.43
1598,931.01,1998.00,27.47
1599,931.10,1999.00,14.34
1600,931.19,2000.00,21.92
1601,931.27,2001.00,12.77
1602,931.36,2002.00,11.06
1603,931.45,2003.00,22.43
1604,931.53,2004.00,19.87
1605,931.62,2005.00,30.29
1606,931.71,2006.00,27.40
1607,931.79,2007.00,28.51
1608,931.88,2008.00,19.11
1609,931.97,2009.00,16.30
1610,932.05,2010.00,30.03
1611,932.14,2011.00,10.60
1612,932.23,2012.00,28.23
1613,932.31,2013.00,63.74
1614,932.40,2014.00,31.85
1615,932.49,2015.00,30.82
1616,932.57,2016.00,42.34
1617,932.66,2017.00,35.00
1618,932.75,2018.00,30.15
1619,932.84,2019.00,52.52
1620,932.92,2020.00,38.52
1621,933.01,2021.00,58.22
1622,933.10,2022.00,52.73
1623,933.18,2023.00,36.34
1624,933.27,2024.00,25.22
1625,933.36,2025.00,15.48
1626,933.45,2026.00,27.50
1627,933.53,2027.00,3.62
1628,933.62,2028.00,20.69
1629,933.71,2029.00,46.10
1630,933.79,2030.00,18.13
1631,933.88,2031.00,19.04
1632,933.97,2032.00,19.77
1633,934.06,2033.00,15.42
1634,934.14,2034.00,17.89
1635,934.23,2035.00,28.99
1636,934.32,2036.00,28.01
1637,934.40,2037.00,46.18
1638,934.49,2038.00,51.88
1639,934.58,2039.00,39.41
1640,934.67,2040.00,27.69
1641,934.75,2041.00,24.35
1642,934.84,2042.00,41.32
1643,934.93,2043.00,15.97
1644,935.02,2044.00,31.05
1645,935.10,2045.00,67.50
1646,935.19,2046.00,22.48
1647,935.28,2047.00,29.91
1648,935.37,2048.00,26.89
1649,935.45,2049.00,14.90
1650,935.54,2050.00,20.17
1651,935.63,2051.00,37.62
1652,935.72,2052.00,25.68
1653,935.80,2053.00,42.35
1654,935.89,2054.00,36.65
1655,935.98,2055.00,34.68
1656,936.07,2056.00,28.25
1657,936.15,2057.00,18.59
1658,936.24,2058.00,37.83
1659,936.33,2059.00,13.88
1660,936.42,2060.00,25.73
1661,936.51,2061.00,61.55
1662,936.59,2062.00,22.26
1663,936.68,2063.00,24.94
1664,936.77,2064.00,28.32
1665,936.86,2065.00,15.48
1666,936.94,2066.00,21.40
1667,937.03,2067.00,29.97
1668,937.12,2068.00,30.29
1669,937.21,2069.00,46.50
1670,937.30,2070.00,27.60
1671,937.38,2071.00,36.74
1672,937.47,2072.00,30.35
1673,937.56,2073.00,16.53
1674,937.65,2074.00,40.82
1675,937.73,2075.00,7.74
1676,937.82,2076.00,20.73
1677,937.91,2077.00,45.07
1678,938.00,2078.00,12.15
1679,938.09,2079.00,8.84
1680,938.17,2080.00,15.56
1681,938.26,2081.00,0.38
1682,938.35,2082.00,5.36
1683,938.44,2083.00,18.23
1684,938.53,2084.00,24.43
1685,938.61,2085.00,41.20
1686,938.70,2086.00,32.14
1687,938.79,2087.00,39.09
1688,938.88,2088.00,31.79
1689,938.97,2089.00,16.65
1690,939.06,2090.00,32.45
1691,939.14,2091.00,2.89
1692,939.23,2092.00,11.57
1693,939.32,2093.00,40.11
1694,939.41,2094.00,11.57
1695,939.50,2095.00,2.94
1696,939.58,2096.00,9.28
1697,939.67,2097.00,4.73
1698,939.76,2098.00,4.23
1699,939.85,2099.00,13.64
1700,939.94,2100.00,17.90
1701,940.03,2101.00,35.89
1702,940.11,2102.00,39.65
1703,940.20,2103.00,43.32
1704,940.29,2104.00,32.85
1705,940.38,2105.00,23.33
1706,940.47,2106.00,42.70
1707,940.56,2107.00,8.72
1708,940.65,2108.00,36.80
1709,940.73,2109.00,72.13
1710,940.82,2110.00,20.71
1711,940.91,2111.00,25.31
1712,941.00,2112.00,18.55
1713,941.09,2113.00,16.24
1714,941.18,2114.00,17.16
1715,941.27,2115.00,36.35
1716,941.35,2116.00,29.21
1717,941.44,2117.00,45.64
1718,941.53,2118.00,45.52
1719,941.62,2119.00,32.65
1720,941.71,2120.00,27.30
1721,941.80,2121.00,11.35
1722,941.89,2122.00,23.99
1723,941.97,2123.00,3.91
1724,942.06,2124.00,25.25
1725,942.15,2125.00,45.54
1726,942.24,2126.00,12.31
1727,942.33,2127.00,20.24
1728,942.42,2128.00,21.75
1729,942.51,2129.00,8.17
1730,942.60,2130.00,8.88
1731,942.68,2131.00,34.22
1732,942.77,2132.00,31.60
1733,942.86,2133.00,39.88
1734,942.95,2134.00,48.13
1735,943.04,2135.00,29.40
1736,943.13,2136.00,29.70
1737,943.22,2137.00,14.28
1738,943.31,2138.00,28.57
1739,943.40,2139.00,3.64
1740,943.49,2140.00,18.84
1741,943.57,2141.00,41.53
1742,943.66,2142.00,12.92
1743,943.75,2143.00,15.16
1744,943.84,2144.00,18.38
1745,943.93,2145.00,11.67
1746,944.02,2146.00,15.53
1747,944.11,2147.00,25.56
1748,944.20,2148.00,22.57
1749,944.29,2149.00,39.39
1750,944.38,2150.00,36.21
1751,944.47,2151.00,35.14
1752,944.55,2152.00,27.72
1753,944.64,2153.00,18.54
1754,944.73,2154.00,42.81
1755,944.82,2155.00,7.63
1756,944.91,2156.00,25.19
1757,945.00,2157.00,62.26
1758,945.09,2158.00,20.04
1759,945.18,2159.00,18.56
1760,945.27,2160.00,22.13
1761,945.36,2161.00,9.61
1762,945.45,2162.00,15.77
1763,945.54,2163.00,20.38
1764,945.63,2164.00,24.40
1765,945.72,2165.00,49.00
1766,945.81,2166.00,38.83
1767,945.89,2167.00,39.81
1768,945.98,2168.00,36.00
1769,946.07,2169.00,18.73
1770,946.16,2170.00,43.26
1771,946.25,2171.00,11.62
1772,946.34,2172.00,22.85
1773,946.43,2173.00,57.11
1774,946.52,2174.00,18.96
1775,946.61,2175.00,13.92
1776,946.70,2176.00,22.37
1777,946.79,2177.00,7.05
1778,946.88,2178.00,5.60
1779,946.97,2179.00,19.83
1780,947.06,2180.00,24.03
1781,947.15,2181.00,36.24
1782,947.24,2182.00,35.22
1783,947.33,2183.00,37.12
1784,947.42,2184.00,36.00
1785,947.51,2185.00,24.25
1786,947.60,2186.00,38.97
1787,947.69,2187.00,7.35
1788,947.78,2188.00,21.07
1789,947.87,2189.00,57.26
1790,947.96,2190.00,17.30
1791,948.05,2191.00,14.99
1792,948.14,2192.00,20.19
1793,948.23,2193.00,8.91
1794,948.32,2194.00,8.65
1795,948.41,2195.00,21.96
1796,948.50,2196.00,19.68
1797,948.59,2197.00,37.99
1798,948.68,2198.00,44.61
1799,948.77,2199.00,30.82
1800,948.86,2200.00,26.71
1801,948.95,2201.00,19.08
1802,949.04,2202.00,40.28
1803,949.13,2203.00,2.18
1804,949.22,2204.00,23.65
1805,949.31,2205.00,63.98
1806,949.40,2206.00,17.67
1807,949.49,2207.00,21.65
1808,949.58,2208.00,21.86
1809,949.67,2209.00,19.11
1810,949.76,2210.00,12.76
1811,949.85,2211.00,34.95
1812,949.94,2212.00,27.77
1813,950.03,2213.00,44.92
1814,950.12,2214.00,48.37
1815,950.21,2215.00,38.21
1816,950.30,2216.00,29.94
1817,950.39,2217.00,16.54
1818,950.48,2218.00,30.15
1819,950.57,2219.00,7.70
1820,950.66,2220.00,21.68
1821,950.75,2221.00,57.01
1822,950.84,2222.00,18.50
1823,950.93,2223.00,19.62
1824,951.02,2224.00,20.89
1825,951.11,2225.00,10.03
1826,951.20,2226.00,14.92
1827,951.29,2227.00,25.01
1828,951.38,2228.00,22.79
1829,951.47,2229.00,36.50
1830,951.57,2230.00,40.15
1831,951.66,2231.00,29.37
1832,951.75,2232.00,23.37
1833,951.84,2233.00,12.16
1834,951.93,2234.00,37.38
1835,952.02,2235.00,6.50
1836,952.11,2236.00,27.21
1837,952.20,2237.00,63.93
1838,952.29,2238.00,24.74
1839,952.38,2239.00,23.60
1840,952.47,2240.00,30.49
1841,952.56,2241.00,23.00
1842,952.65,2242.00,19.77
1843,952.74,2243.00,31.80
1844,952.83,2244.00,35.20
1845,952.93,2245.00,44.91
1846,953.02,2246.00,42.95
1847,953.11,2247.00,30.63
1848,953.20,2248.00,24.79
1849,953.29,2249.00,13.38
1850,953.38,2250.00,29.94
1851,953.47,2251.00,2.87
1852,953.56,2252.00,14.67
1853,953.65,2253.00,44.38
1854,953.74,2254.00,11.95
1855,953.83,2255.00,10.77
1856,953.93,2256.00,17.70
1857,954.02,2257.00,7.63
1858,954.11,2258.00,5.20
1859,954.20,2259.00,18.90
1860,954.29,2260.00,18.68
1861,954.38,2261.00,29.58
1862,954.47,2262.00,31.34
1863,954.56,2263.00,27.31
1864,954.65,2264.00,21.63
1865,954.75,2265.00,19.66
1866,954.84,2266.00,41.25
1867,954.93,2267.00,0.00
1868,955.02,2268.00,27.72
1869,955.11,2269.00,65.72
1870,955.20,2270.00,18.34
1871,955.29,2271.00,23.28
1872,955.38,2272.00,26.95
1873,955.47,2273.00,10.59
1874,955.57,2274.00,17.07
1875,955.66,2275.00,24.32
1876,955.75,2276.00,30.32
1877,955.84,2277.00,42.21
1878,955.93,2278.00,39.39
1879,956.02,2279.00,29.93
1880,956.11,2280.00,31.52
1881,956.21,2281.00,11.94
1882,956.30,2282.00,33.63
1883,956.39,2283.00,0.12
1884,956.48,2284.00,18.18
1885,956.57,2285.00,36.16
1886,956.66,2286.00,6.22
1887,956.75,2287.00,11.98
1888,956.85,2288.00,15.55
1889,956.94,2289.00,0.00
1890,957.03,2290.00,0.00
1891,957.12,2291.00,10.20
1892,957.21,2292.00,19.98
1893,957.30,2293.00,21.81
1894,957.40,2294.00,34.96
1895,957.49,2295.00,29.04
1896,957.58,2296.00,32.39
1897,957.67,2297.00,6.44
1898,957.76,2298.00,26.77
1899,957.85,2299.00,0.00
1900,957.95,2300.00,9.80
1901,958.04,2301.00,38.07
1902,958.13,2302.00,12.79
1903,958.22,2303.00,2.57
1904,958.31,2304.00,10.56
1905,958.41,2305.00,1.04
1906,958.50,2306.00,0.00
1907,958.59,2307.00,14.73
1908,958.68,2308.00,16.76
1909,958.77,2309.00,31.07
1910,958.86,2310.00,40.91
1911,958.96,2311.00,35.49
1912,959.05,2312.00,31.24
1913,959.14,2313.00,17.04
1914,959.23,2314.00,29.41
1915,959.32,2315.00,0.00
1916,959.42,2316.00,15.93
1917,959.51,2317.00,46.55
1918,959.60,2318.00,12.51
1919,959.69,2319.00,5.73
1920,959.79,2320.00,9.73
1921,959.88,2321.00,5.60
1922,959.97,2322.00,3.48
1923,960.06,2323.00,13.46
1924,960.15,2324.00,18.87
1925,960.25,2325.00,26.13
1926,960.34,2326.00,34.94
1927,960.43,2327.00,27.68
1928,960.52,2328.00,33.65
1929,960.61,2329.00,11.28
1930,960.71,2330.00,36.71
1931,960.80,2331.00,6.01
1932,960.89,2332.00,29.18
1933,960.98,2333.00,53.35
1934,961.08,2334.00,18.58
1935,961.17,2335.00,17.99
1936,961.26,2336.00,24.51
1937,961.35,2337.00,5.21
1938,961.45,2338.00,2.03
1939,961.54,2339.00,24.95
1940,961.63,2340.00,23.51
1941,961.72,2341.00,33.12
1942,961.82,2342.00,40.07
1943,961.91,2343.00,30.20
1944,962.00,2344.00,37.97
1945,962.09,2345.00,9.57
1946,962.19,2346.00,28.60
1947,962.28,2347.00,0.00
1948,962.37,2348.00,13.66
1949,962.46,2349.00,38.39
1950,962.56,2350.00,11.61
1951,962.65,2351.00,10.46
1952,962.74,2352.00,17.01
1953,962.83,2353.00,0.81
1954,962.93,2354.00,0.00
1955,963.02,2355.00,9.53
1956,963.11,2356.00,8.76
1957,963.21,2357.00,21.67
1958,963.30,2358.00,30.62
1959,963.39,2359.00,21.90
1960,963.48,2360.00,27.81
1961,963.58,2361.00,17.51
1962,963.67,2362.00,44.90
1963,963.76,2363.00,2.85
1964,963.86,2364.00,19.28
1965,963.95,2365.00,63.14
1966,964.04,2366.00,16.10
1967,964.13,2367.00,10.66
1968,964.23,2368.00,17.41
1969,964.32,2369.00,8.28
1970,964.41,2370.00,11.36
1971,964.51,2371.00,27.97
1972,964.60,2372.00,24.21
1973,964.69,2373.00,42.91
1974,964.79,2374.00,39.99
1975,964.88,2375.00,37.80
1976,964.97,2376.00,33.42
1977,965.06,2377.00,16.68
1978,965.16,2378.00,33.35
1979,965.25,2379.00,6.02
1980,965.34,2380.00,14.43
1981,965.44,2381.00,38.44
1982,965.53,2382.00,7.16
1983,965.62,2383.00,8.49
1984,965.72,2384.00,16.89
1985,965.81,2385.00,2.92
1986,965.90,2386.00,3.33
1987,966.00,2387.00,15.93
1988,966.09,2388.00,20.42
1989,966.18,2389.00,36.43
1990,966.28,2390.00,40.00
1991,966.37,2391.00,34.72
1992,966.46,2392.00,39.97
1993,966.56,2393.00,18.15
1994,966.65,2394.00,39.31
1995,966.74,2395.00,4.37
1996,966.84,2396.00,16.33
1997,966.93,2397.00,52.31
1998,967.02,2398.00,15.28
1999,967.12,2399.00,12.16
2000,967.21,2400.00,15.64
