Pixel,Wavelength,Wavenumber,Processed
0,810.44,400.00,4009.78
1,810.50,401.00,3583.01
2,810.57,402.00,3253.70
3,810.64,403.00,2967.10
4,810.70,404.00,2764.73
5,810.77,405.00,2211.60
6,810.83,406.00,1849.02
7,810.90,407.00,1571.83
8,810.96,408.00,1159.24
9,811.03,409.00,905.27
10,811.10,410.00,764.39
11,811.16,411.00,536.90
12,811.23,412.00,463.01
13,811.29,413.00,413.84
14,811.36,414.00,412.21
15,811.42,415.00,353.77
16,811.49,416.00,357.64
17,811.56,417.00,365.43
18,811.62,418.00,393.20
19,811.69,419.00,443.94
20,811.75,420.00,484.91
21,811.82,421.00,719.42
22,811.89,422.00,704.80
23,811.95,423.00,985.85
24,812.02,424.00,881.25
25,812.08,425.00,949.47
26,812.15,426.00,949.80
27,812.22,427.00,828.27
28,812.28,428.00,844.11
29,812.35,429.00,735.04
30,812.41,430.00,604.18
31,812.48,431.00,512.85
32,812.55,432.00,445.60
33,812.61,433.00,425.50
34,812.68,434.00,365.60
35,812.74,435.00,368.46
36,812.81,436.00,357.03
37,812.88,437.00,426.40
38,812.94,438.00,404.32
39,813.01,439.00,502.04
40,813.07,440.00,552.01
41,813.14,441.00,728.58
42,813.21,442.00,865.70
43,813.27,443.00,1024.02
44,813.34,444.00,1294.88
45,813.40,445.00,1611.06
46,813.47,446.00,1883.20
47,813.54,447.00,2164.79
48,813.60,448.00,2429.93
49,813.67,449.00,2877.53
50,813.74,450.00,2850.13
51,813.80,451.00,3006.46
52,813.87,452.00,3138.27
53,813.93,453.00,3168.12
54,814.00,454.00,3224.66
55,814.07,455.00,3322.84
56,814.13,456.00,3436.41
57,814.20,457.00,3496.87
58,814.27,458.00,3701.92
59,814.33,459.00,3883.66
60,814.40,460.00,4048.31
61,814.46,461.00,4377.45
62,814.53,462.00,4844.29
63,814.60,463.00,5294.05
64,814.66,464.00,5683.98
65,814.73,465.00,6510.99
66,814.80,466.00,6965.78
67,814.86,467.00,7768.93
68,814.93,468.00,8429.07
69,815.00,469.00,9129.79
70,815.06,470.00,9842.83
71,815.13,471.00,10514.23
72,815.20,472.00,10961.70
73,815.26,473.00,11309.80
74,815.33,474.00,11347.35
75,815.39,475.00,11308.74
76,815.46,476.00,11464.60
77,815.53,477.00,11137.76
78,815.59,478.00,10355.92
79,815.66,479.00,9609.22
80,815.73,480.00,8801.36
81,815.79,481.00,8072.31
82,815.86,482.00,7254.20
83,815.93,483.00,6331.15
84,815.99,484.00,5829.04
85,816.06,485.00,4967.34
86,816.13,486.00,4386.73
87,816.19,487.00,3855.73
88,816.26,488.00,3309.75
89,816.33,489.00,2934.38
90,816.39,490.00,2460.03
91,816.46,491.00,2143.24
92,816.53,492.00,1795.55
93,816.59,493.00,1622.30
94,816.66,494.00,1363.61
95,816.73,495.00,1264.70
96,816.79,496.00,1062.64
97,816.86,497.00,1034.62
98,816.93,498.00,912.80
99,816.99,499.00,813.30
100,817.06,500.00,850.64
101,817.13,501.00,852.23
102,817.19,502.00,1007.47
103,817.26,503.00,971.08
104,817.33,504.00,997.10
105,817.39,505.00,1081.66
106,817.46,506.00,1008.34
107,817.53,507.00,1108.26
108,817.59,508.00,959.55
109,817.66,509.00,943.01
110,817.73,510.00,822.55
111,817.80,511.00,777.80
112,817.86,512.00,789.26
113,817.93,513.00,753.92
114,818.00,514.00,627.73
115,818.06,515.00,546.31
116,818.13,516.00,518.58
117,818.20,517.00,455.49
118,818.26,518.00,453.88
119,818.33,519.00,470.60
120,818.40,520.00,517.08
121,818.46,521.00,455.25
122,818.53,522.00,398.44
123,818.60,523.00,403.72
124,818.67,524.00,362.12
125,818.73,525.00,343.35
126,818.80,526.00,268.02
127,818.87,527.00,317.50
128,818.93,528.00,364.43
129,819.00,529.00,423.77
130,819.07,530.00,377.67
131,819.14,531.00,488.55
132,819.20,532.00,525.27
133,819.27,533.00,473.07
134,819.34,534.00,526.25
135,819.40,535.00,529.91
136,819.47,536.00,647.26
137,819.54,537.00,625.76
138,819.60,538.00,640.79
139,819.67,539.00,757.53
140,819.74,540.00,812.15
141,819.81,541.00,793.19
142,819.87,542.00,825.93
143,819.94,543.00,929.94
144,820.01,544.00,994.33
145,820.08,545.00,1089.28
146,820.14,546.00,1061.54
147,820.21,547.00,1125.70
148,820.28,548.00,1204.00
149,820.34,549.00,1221.32
150,820.41,550.00,1244.64
151,820.48,551.00,1334.92
152,820.55,552.00,1573.96
153,820.61,553.00,1566.05
154,820.68,554.00,1499.67
155,820.75,555.00,1719.52
156,820.82,556.00,1600.51
157,820.88,557.00,1556.43
158,820.95,558.00,1417.86
159,821.02,559.00,1398.71
160,821.09,560.00,1283.19
161,821.15,561.00,1236.00
162,821.22,562.00,1096.75
163,821.29,563.00,898.01
164,821.36,564.00,754.58
165,821.42,565.00,690.88
166,821.49,566.00,474.56
167,821.56,567.00,439.14
168,821.63,568.00,393.51
169,821.69,569.00,339.65
170,821.76,570.00,268.55
171,821.83,571.00,325.63
172,821.90,572.00,249.72
173,821.96,573.00,309.35
174,822.03,574.00,255.95
175,822.10,575.00,321.75
176,822.17,576.00,271.34
177,822.23,577.00,323.36
178,822.30,578.00,413.41
179,822.37,579.00,381.75
180,822.44,580.00,305.35
181,822.50,581.00,411.42
182,822.57,582.00,220.55
183,822.64,583.00,236.78
184,822.71,584.00,128.45
185,822.77,585.00,190.81
186,822.84,586.00,185.87
187,822.91,587.00,195.97
188,822.98,588.00,135.80
189,823.05,589.00,175.92
190,823.11,590.00,170.82
191,823.18,591.00,186.99
192,823.25,592.00,147.07
193,823.32,593.00,228.89
194,823.38,594.00,138.55
195,823.45,595.00,242.04
196,823.52,596.00,191.01
197,823.59,597.00,318.33
198,823.66,598.00,238.91
199,823.72,599.00,373.92
200,823.79,600.00,379.15
201,823.86,601.00,415.09
202,823.93,602.00,372.54
203,823.99,603.00,575.39
204,824.06,604.00,465.95
205,824.13,605.00,587.64
206,824.20,606.00,543.22
207,824.27,607.00,615.50
208,824.33,608.00,550.17
209,824.40,609.00,611.87
210,824.47,610.00,654.77
211,824.54,611.00,648.71
212,824.61,612.00,724.48
213,824.67,613.00,851.89
214,824.74,614.00,921.13
215,824.81,615.00,951.16
216,824.88,616.00,1045.89
217,824.95,617.00,1161.59
218,825.01,618.00,1122.18
219,825.08,619.00,1305.92
220,825.15,620.00,1421.06
221,825.22,621.00,1572.12
222,825.29,622.00,1627.05
223,825.35,623.00,1846.03
224,825.42,624.00,1925.82
225,825.49,625.00,2056.79
226,825.56,626.00,2184.96
227,825.63,627.00,2286.23
228,825.70,628.00,2322.34
229,825.76,629.00,2437.65
230,825.83,630.00,2460.79
231,825.90,631.00,2502.49
232,825.97,632.00,2644.41
233,826.04,633.00,2773.08
234,826.10,634.00,2795.39
235,826.17,635.00,3023.50
236,826.24,636.00,3119.32
237,826.31,637.00,3153.26
238,826.38,638.00,3274.44
239,826.45,639.00,3365.58
240,826.51,640.00,3504.30
241,826.58,641.00,3594.71
242,826.65,642.00,3562.76
243,826.72,643.00,3553.49
244,826.79,644.00,3673.24
245,826.86,645.00,3617.44
246,826.92,646.00,3416.11
247,826.99,647.00,3348.07
248,827.06,648.00,3282.96
249,827.13,649.00,3093.85
250,827.20,650.00,2748.10
251,827.27,651.00,2475.97
252,827.34,652.00,2137.43
253,827.40,653.00,1835.26
254,827.47,654.00,1599.28
255,827.54,655.00,1472.47
256,827.61,656.00,1305.05
257,827.68,657.00,1309.03
258,827.75,658.00,1207.07
259,827.81,659.00,1188.36
260,827.88,660.00,1168.09
261,827.95,661.00,1294.00
262,828.02,662.00,1176.76
263,828.09,663.00,1347.00
264,828.16,664.00,1368.47
265,828.23,665.00,1453.34
266,828.29,666.00,1441.60
267,828.36,667.00,1680.23
268,828.43,668.00,1510.68
269,828.50,669.00,1524.96
270,828.57,670.00,1521.43
271,828.64,671.00,1547.25
272,828.71,672.00,1414.32
273,828.78,673.00,1666.08
274,828.84,674.00,1582.99
275,828.91,675.00,1742.67
276,828.98,676.00,1650.00
277,829.05,677.00,1720.69
278,829.12,678.00,1544.23
279,829.19,679.00,1562.72
280,829.26,680.00,1534.89
281,829.32,681.00,1552.52
282,829.39,682.00,1405.19
283,829.46,683.00,1510.08
284,829.53,684.00,1407.66
285,829.60,685.00,1376.95
286,829.67,686.00,1490.60
287,829.74,687.00,1426.02
288,829.81,688.00,1466.65
289,829.88,689.00,1570.30
290,829.94,690.00,1625.51
291,830.01,691.00,1763.34
292,830.08,692.00,1826.08
293,830.15,693.00,2033.40
294,830.22,694.00,2127.41
295,830.29,695.00,2365.96
296,830.36,696.00,2352.34
297,830.43,697.00,2424.06
298,830.50,698.00,2291.80
299,830.56,699.00,2413.77
300,830.63,700.00,2216.27
301,830.70,701.00,2146.65
302,830.77,702.00,2095.42
303,830.84,703.00,2064.13
304,830.91,704.00,1887.76
305,830.98,705.00,1787.82
306,831.05,706.00,1749.63
307,831.12,707.00,1629.18
308,831.19,708.00,1586.78
309,831.26,709.00,1544.93
310,831.32,710.00,1512.27
311,831.39,711.00,1496.25
312,831.46,712.00,1453.32
313,831.53,713.00,1392.40
314,831.60,714.00,1518.62
315,831.67,715.00,1374.35
316,831.74,716.00,1336.45
317,831.81,717.00,1215.06
318,831.88,718.00,1296.14
319,831.95,719.00,1153.44
320,832.02,720.00,1169.91
321,832.09,721.00,1092.42
322,832.15,722.00,1103.55
323,832.22,723.00,985.87
324,832.29,724.00,916.23
325,832.36,725.00,881.42
326,832.43,726.00,853.67
327,832.50,727.00,801.59
328,832.57,728.00,830.39
329,832.64,729.00,741.83
330,832.71,730.00,630.73
331,832.78,731.00,677.77
332,832.85,732.00,659.81
333,832.92,733.00,535.91
334,832.99,734.00,609.61
335,833.06,735.00,529.74
336,833.13,736.00,512.90
337,833.19,737.00,524.09
338,833.26,738.00,488.22
339,833.33,739.00,514.28
340,833.40,740.00,587.88
341,833.47,741.00,657.46
342,833.54,742.00,694.54
343,833.61,743.00,685.86
344,833.68,744.00,695.60
345,833.75,745.00,710.85
346,833.82,746.00,684.59
347,833.89,747.00,758.00
348,833.96,748.00,804.67
349,834.03,749.00,913.01
350,834.10,750.00,1013.46
351,834.17,751.00,1062.78
352,834.24,752.00,1283.58
353,834.31,753.00,1235.36
354,834.38,754.00,1296.74
355,834.45,755.00,1276.28
356,834.52,756.00,1412.38
357,834.59,757.00,1385.49
358,834.65,758.00,1561.81
359,834.72,759.00,1433.24
360,834.79,760.00,1525.61
361,834.86,761.00,1500.06
362,834.93,762.00,1583.59
363,835.00,763.00,1691.06
364,835.07,764.00,1825.21
365,835.14,765.00,2042.67
366,835.21,766.00,2194.18
367,835.28,767.00,2520.63
368,835.35,768.00,2578.62
369,835.42,769.00,2909.80
370,835.49,770.00,3133.55
371,835.56,771.00,3378.48
372,835.63,772.00,3682.23
373,835.70,773.00,3844.63
374,835.77,774.00,3843.74
375,835.84,775.00,4153.38
376,835.91,776.00,4102.56
377,835.98,777.00,4246.52
378,836.05,778.00,3962.27
379,836.12,779.00,4120.43
380,836.19,780.00,3960.05
381,836.26,781.00,3837.47
382,836.33,782.00,3425.09
383,836.40,783.00,3366.81
384,836.47,784.00,3157.56
385,836.54,785.00,2972.15
386,836.61,786.00,2791.75
387,836.68,787.00,2632.54
388,836.75,788.00,2451.90
389,836.82,789.00,2359.27
390,836.89,790.00,2044.97
391,836.96,791.00,2007.69
392,837.03,792.00,2034.26
393,837.10,793.00,1985.61
394,837.17,794.00,1830.44
395,837.24,795.00,1853.35
396,837.31,796.00,1831.44
397,837.38,797.00,1846.86
398,837.45,798.00,1731.40
399,837.52,799.00,1753.64
400,837.59,800.00,1718.78
401,837.66,801.00,1690.51
402,837.73,802.00,1651.07
403,837.80,803.00,1537.25
404,837.87,804.00,1533.58
405,837.94,805.00,1432.14
406,838.01,806.00,1281.61
407,838.08,807.00,1213.13
408,838.15,808.00,1141.76
409,838.22,809.00,920.24
410,838.29,810.00,763.48
411,838.36,811.00,726.45
412,838.43,812.00,543.68
413,838.50,813.00,443.43
414,838.57,814.00,390.99
415,838.64,815.00,323.74
416,838.72,816.00,272.26
417,838.79,817.00,285.86
418,838.86,818.00,213.01
419,838.93,819.00,274.53
420,839.00,820.00,257.47
421,839.07,821.00,281.68
422,839.14,822.00,289.91
423,839.21,823.00,375.56
424,839.28,824.00,409.61
425,839.35,825.00,473.78
426,839.42,826.00,536.52
427,839.49,827.00,653.77
428,839.56,828.00,652.53
429,839.63,829.00,691.81
430,839.70,830.00,773.06
431,839.77,831.00,736.92
432,839.84,832.00,802.71
433,839.91,833.00,813.36
434,839.98,834.00,1008.51
435,840.05,835.00,1108.06
436,840.12,836.00,1215.52
437,840.19,837.00,1507.71
438,840.27,838.00,1746.84
439,840.34,839.00,2067.35
440,840.41,840.00,2519.15
441,840.48,841.00,3189.37
442,840.55,842.00,3825.13
443,840.62,843.00,4856.44
444,840.69,844.00,5618.19
445,840.76,845.00,6791.49
446,840.83,846.00,7374.21
447,840.90,847.00,8145.31
448,840.97,848.00,8828.50
449,841.04,849.00,8943.58
450,841.11,850.00,8869.56
451,841.18,851.00,8840.93
452,841.26,852.00,8374.28
453,841.33,853.00,7840.16
454,841.40,854.00,7184.14
455,841.47,855.00,6630.89
456,841.54,856.00,6194.53
457,841.61,857.00,5815.42
458,841.68,858.00,5264.73
459,841.75,859.00,5095.79
460,841.82,860.00,4865.43
461,841.89,861.00,4770.16
462,841.96,862.00,4558.06
463,842.03,863.00,4645.21
464,842.11,864.00,4717.15
465,842.18,865.00,4912.00
466,842.25,866.00,5176.36
467,842.32,867.00,5619.17
468,842.39,868.00,5918.60
469,842.46,869.00,6452.60
470,842.53,870.00,6722.77
471,842.60,871.00,7203.19
472,842.67,872.00,7463.44
473,842.74,873.00,7810.99
474,842.82,874.00,8206.75
475,842.89,875.00,8513.01
476,842.96,876.00,8396.62
477,843.03,877.00,8500.02
478,843.10,878.00,7871.02
479,843.17,879.00,7553.28
480,843.24,880.00,7210.40
481,843.31,881.00,6721.49
482,843.38,882.00,6344.06
483,843.45,883.00,5888.77
484,843.53,884.00,5502.98
485,843.60,885.00,5227.44
486,843.67,886.00,4747.67
487,843.74,887.00,4489.41
488,843.81,888.00,4258.24
489,843.88,889.00,3987.10
490,843.95,890.00,3832.61
491,844.02,891.00,3759.73
492,844.10,892.00,3561.56
493,844.17,893.00,3604.63
494,844.24,894.00,3596.56
495,844.31,895.00,3713.29
496,844.38,896.00,3648.80
497,844.45,897.00,3805.65
498,844.52,898.00,3824.38
499,844.59,899.00,3985.21
500,844.67,900.00,3952.24
501,844.74,901.00,4121.25
502,844.81,902.00,4216.58
503,844.88,903.00,4455.87
504,844.95,904.00,4565.30
505,845.02,905.00,4810.15
506,845.09,906.00,5031.23
507,845.17,907.00,5412.34
508,845.24,908.00,5565.50
509,845.31,909.00,5825.23
510,845.38,910.00,5985.17
511,845.45,911.00,6254.11
512,845.52,912.00,6251.36
513,845.59,913.00,6354.54
514,845.67,914.00,6302.13
515,845.74,915.00,6237.03
516,845.81,916.00,6034.10
517,845.88,917.00,5805.47
518,845.95,918.00,5335.87
519,846.02,919.00,4992.66
520,846.10,920.00,4555.69
521,846.17,921.00,3993.23
522,846.24,922.00,3770.77
523,846.31,923.00,3258.31
524,846.38,924.00,2922.82
525,846.45,925.00,2703.21
526,846.53,926.00,2571.50
527,846.60,927.00,2391.75
528,846.67,928.00,2163.88
529,846.74,929.00,2160.23
530,846.81,930.00,2041.59
531,846.88,931.00,1964.65
532,846.96,932.00,1914.82
533,847.03,933.00,1776.44
534,847.10,934.00,1874.62
535,847.17,935.00,1809.68
536,847.24,936.00,1700.77
537,847.31,937.00,1795.64
538,847.39,938.00,1867.16
539,847.46,939.00,1838.75
540,847.53,940.00,1928.98
541,847.60,941.00,1846.17
542,847.67,942.00,2201.60
543,847.75,943.00,2300.59
544,847.82,944.00,2305.64
545,847.89,945.00,2563.35
546,847.96,946.00,2814.37
547,848.03,947.00,3127.70
548,848.10,948.00,3053.69
549,848.18,949.00,3532.89
550,848.25,950.00,3539.28
551,848.32,951.00,3811.05
552,848.39,952.00,3863.16
553,848.46,953.00,4001.54
554,848.54,954.00,4139.46
555,848.61,955.00,4108.01
556,848.68,956.00,3961.54
557,848.75,957.00,3655.16
558,848.82,958.00,3624.77
559,848.90,959.00,3395.48
560,848.97,960.00,2879.83
561,849.04,961.00,2483.84
562,849.11,962.00,2224.15
563,849.18,963.00,1735.33
564,849.26,964.00,1350.31
565,849.33,965.00,1062.34
566,849.40,966.00,894.99
567,849.47,967.00,632.74
568,849.55,968.00,567.26
569,849.62,969.00,436.90
570,849.69,970.00,370.10
571,849.76,971.00,307.35
572,849.83,972.00,297.60
573,849.91,973.00,209.56
574,849.98,974.00,210.62
575,850.05,975.00,190.63
576,850.12,976.00,148.22
577,850.20,977.00,155.53
578,850.27,978.00,159.06
579,850.34,979.00,120.21
580,850.41,980.00,147.74
581,850.48,981.00,147.47
582,850.56,982.00,134.03
583,850.63,983.00,133.33
584,850.70,984.00,199.53
585,850.77,985.00,246.20
586,850.85,986.00,307.96
587,850.92,987.00,376.71
588,850.99,988.00,429.06
589,851.06,989.00,653.98
590,851.14,990.00,747.84
591,851.21,991.00,864.83
592,851.28,992.00,1081.42
593,851.35,993.00,1197.94
594,851.43,994.00,1439.87
595,851.50,995.00,1621.70
596,851.57,996.00,1837.44
597,851.64,997.00,2095.23
598,851.72,998.00,2243.29
599,851.79,999.00,2332.04
600,851.86,1000.00,2770.55
601,851.93,1001.00,3024.31
602,852.01,1002.00,3097.27
603,852.08,1003.00,3515.82
604,852.15,1004.00,3456.71
605,852.22,1005.00,3836.57
606,852.30,1006.00,3753.47
607,852.37,1007.00,3863.68
608,852.44,1008.00,4054.09
609,852.51,1009.00,4074.29
610,852.59,1010.00,4125.86
611,852.66,1011.00,4383.85
612,852.73,1012.00,4553.35
613,852.81,1013.00,4516.35
614,852.88,1014.00,4631.31
615,852.95,1015.00,4781.26
616,853.02,1016.00,4970.45
617,853.10,1017.00,4967.84
618,853.17,1018.00,4959.84
619,853.24,1019.00,5087.30
620,853.32,1020.00,5174.73
621,853.39,1021.00,5245.87
622,853.46,1022.00,5377.29
623,853.53,1023.00,5449.66
624,853.61,1024.00,5574.84
625,853.68,1025.00,5586.20
626,853.75,1026.00,5620.46
627,853.83,1027.00,5566.35
628,853.90,1028.00,5633.12
629,853.97,1029.00,5524.14
630,854.04,1030.00,5517.37
631,854.12,1031.00,5516.18
632,854.19,1032.00,5619.18
633,854.26,1033.00,5671.17
634,854.34,1034.00,5803.55
635,854.41,1035.00,6059.80
636,854.48,1036.00,6134.09
637,854.55,1037.00,6358.05
638,854.63,1038.00,6450.50
639,854.70,1039.00,6604.29
640,854.77,1040.00,6718.38
641,854.85,1041.00,7115.59
642,854.92,1042.00,7363.01
643,854.99,1043.00,7673.06
644,855.07,1044.00,7676.65
645,855.14,1045.00,8168.51
646,855.21,1046.00,8234.94
647,855.29,1047.00,8391.32
648,855.36,1048.00,8492.64
649,855.43,1049.00,8692.33
650,855.51,1050.00,8712.77
651,855.58,1051.00,8655.59
652,855.65,1052.00,8371.25
653,855.72,1053.00,8274.49
654,855.80,1054.00,7900.33
655,855.87,1055.00,7351.51
656,855.94,1056.00,6838.57
657,856.02,1057.00,6360.28
658,856.09,1058.00,6030.22
659,856.16,1059.00,5466.26
660,856.24,1060.00,4863.02
661,856.31,1061.00,4377.02
662,856.38,1062.00,3937.78
663,856.46,1063.00,3441.40
664,856.53,1064.00,3143.02
665,856.60,1065.00,2709.91
666,856.68,1066.00,2593.97
667,856.75,1067.00,2366.93
668,856.82,1068.00,2285.30
669,856.90,1069.00,2268.80
670,856.97,1070.00,2248.99
671,857.04,1071.00,2421.40
672,857.12,1072.00,2627.40
673,857.19,1073.00,3006.28
674,857.27,1074.00,3391.87
675,857.34,1075.00,4070.35
676,857.41,1076.00,4946.84
677,857.49,1077.00,6041.26
678,857.56,1078.00,7542.96
679,857.63,1079.00,8941.26
680,857.71,1080.00,11034.31
681,857.78,1081.00,13217.93
682,857.85,1082.00,15415.56
683,857.93,1083.00,17738.65
684,858.00,1084.00,19484.88
685,858.07,1085.00,21107.49
686,858.15,1086.00,22029.21
687,858.22,1087.00,22512.79
688,858.30,1088.00,22178.73
689,858.37,1089.00,21155.40
690,858.44,1090.00,19718.06
691,858.52,1091.00,18017.59
692,858.59,1092.00,16133.49
693,858.66,1093.00,14089.08
694,858.74,1094.00,12220.21
695,858.81,1095.00,10375.40
696,858.89,1096.00,9172.81
697,858.96,1097.00,8036.73
698,859.03,1098.00,7106.29
699,859.11,1099.00,6426.32
700,859.18,1100.00,5828.91
701,859.25,1101.00,5512.04
702,859.33,1102.00,5218.58
703,859.40,1103.00,5049.69
704,859.48,1104.00,5070.49
705,859.55,1105.00,5285.42
706,859.62,1106.00,5503.98
707,859.70,1107.00,5964.68
708,859.77,1108.00,6282.31
709,859.85,1109.00,6945.23
710,859.92,1110.00,7287.28
711,859.99,1111.00,7858.81
712,860.07,1112.00,8318.47
713,860.14,1113.00,8887.94
714,860.22,1114.00,9240.52
715,860.29,1115.00,9687.65
716,860.36,1116.00,9684.29
717,860.44,1117.00,9877.67
718,860.51,1118.00,9798.57
719,860.59,1119.00,9640.15
720,860.66,1120.00,9634.41
721,860.73,1121.00,9621.75
722,860.81,1122.00,9383.09
723,860.88,1123.00,9355.44
724,860.96,1124.00,9234.39
725,861.03,1125.00,9200.51
726,861.10,1126.00,9239.16
727,861.18,1127.00,9140.82
728,861.25,1128.00,9462.05
729,861.33,1129.00,9749.04
730,861.40,1130.00,9968.73
731,861.47,1131.00,10387.71
732,861.55,1132.00,10835.23
733,861.62,1133.00,11302.32
734,861.70,1134.00,11858.29
735,861.77,1135.00,12276.73
736,861.85,1136.00,12634.55
737,861.92,1137.00,12938.17
738,861.99,1138.00,13037.87
739,862.07,1139.00,12786.86
740,862.14,1140.00,12557.76
741,862.22,1141.00,12090.62
742,862.29,1142.00,11515.51
743,862.37,1143.00,10785.90
744,862.44,1144.00,9772.90
745,862.52,1145.00,9173.90
746,862.59,1146.00,8212.82
747,862.66,1147.00,7530.68
748,862.74,1148.00,6701.78
749,862.81,1149.00,6203.84
750,862.89,1150.00,5535.83
751,862.96,1151.00,5113.04
752,863.04,1152.00,4490.87
753,863.11,1153.00,4264.54
754,863.19,1154.00,3882.97
755,863.26,1155.00,3575.09
756,863.33,1156.00,3384.77
757,863.41,1157.00,3201.91
758,863.48,1158.00,3070.04
759,863.56,1159.00,3002.69
760,863.63,1160.00,2844.53
761,863.71,1161.00,2835.13
762,863.78,1162.00,2485.65
763,863.86,1163.00,2421.38
764,863.93,1164.00,2193.21
765,864.01,1165.00,1945.35
766,864.08,1166.00,1823.73
767,864.15,1167.00,1659.27
768,864.23,1168.00,1439.35
769,864.30,1169.00,1318.27
770,864.38,1170.00,1158.26
771,864.45,1171.00,1051.60
772,864.53,1172.00,958.42
773,864.60,1173.00,793.01
774,864.68,1174.00,769.34
775,864.75,1175.00,594.22
776,864.83,1176.00,600.78
777,864.90,1177.00,547.18
778,864.98,1178.00,525.49
779,865.05,1179.00,474.84
780,865.13,1180.00,450.70
781,865.20,1181.00,414.56
782,865.28,1182.00,390.62
783,865.35,1183.00,252.09
784,865.43,1184.00,224.20
785,865.50,1185.00,229.39
786,865.58,1186.00,231.73
787,865.65,1187.00,183.12
788,865.73,1188.00,179.84
789,865.80,1189.00,238.07
790,865.88,1190.00,206.62
791,865.95,1191.00,213.91
792,866.03,1192.00,206.73
793,866.10,1193.00,178.02
794,866.18,1194.00,210.18
795,866.25,1195.00,153.86
796,866.33,1196.00,189.75
797,866.40,1197.00,146.86
798,866.48,1198.00,216.88
799,866.55,1199.00,204.83
800,866.63,1200.00,281.49
801,866.70,1201.00,284.93
802,866.78,1202.00,330.65
803,866.85,1203.00,364.52
804,866.93,1204.00,370.58
805,867.00,1205.00,400.20
806,867.08,1206.00,485.17
807,867.15,1207.00,486.10
808,867.23,1208.00,528.62
809,867.30,1209.00,601.24
810,867.38,1210.00,766.59
811,867.45,1211.00,791.59
812,867.53,1212.00,900.03
813,867.60,1213.00,937.81
814,867.68,1214.00,1100.41
815,867.75,1215.00,1212.07
816,867.83,1216.00,1375.01
817,867.90,1217.00,1395.62
818,867.98,1218.00,1653.73
819,868.06,1219.00,1682.93
820,868.13,1220.00,1565.10
821,868.21,1221.00,1646.02
822,868.28,1222.00,1698.96
823,868.36,1223.00,1659.05
824,868.43,1224.00,1604.19
825,868.51,1225.00,1527.52
826,868.58,1226.00,1559.39
827,868.66,1227.00,1441.55
828,868.73,1228.00,1441.92
829,868.81,1229.00,1367.75
830,868.89,1230.00,1455.81
831,868.96,1231.00,1423.06
832,869.04,1232.00,1402.15
833,869.11,1233.00,1376.53
834,869.19,1234.00,1352.79
835,869.26,1235.00,1305.38
836,869.34,1236.00,1357.57
837,869.41,1237.00,1296.91
838,869.49,1238.00,1439.57
839,869.57,1239.00,1465.88
840,869.64,1240.00,1564.37
841,869.72,1241.00,1665.54
842,869.79,1242.00,1837.77
843,869.87,1243.00,1947.08
844,869.94,1244.00,2249.82
845,870.02,1245.00,2640.53
846,870.09,1246.00,2902.56
847,870.17,1247.00,3363.09
848,870.25,1248.00,3739.83
849,870.32,1249.00,4245.39
850,870.40,1250.00,4736.86
851,870.47,1251.00,5185.49
852,870.55,1252.00,5609.35
853,870.63,1253.00,6375.23
854,870.70,1254.00,6988.30
855,870.78,1255.00,7648.98
856,870.85,1256.00,8385.20
857,870.93,1257.00,9112.23
858,871.00,1258.00,9634.45
859,871.08,1259.00,10146.59
860,871.16,1260.00,10455.85
861,871.23,1261.00,10602.53
862,871.31,1262.00,10915.32
863,871.38,1263.00,10869.37
864,871.46,1264.00,10693.84
865,871.54,1265.00,10555.26
866,871.61,1266.00,10275.83
867,871.69,1267.00,9913.33
868,871.76,1268.00,9479.13
869,871.84,1269.00,9043.69
870,871.92,1270.00,8673.63
871,871.99,1271.00,8222.30
872,872.07,1272.00,7759.60
873,872.14,1273.00,7448.68
874,872.22,1274.00,7052.94
875,872.30,1275.00,6830.90
876,872.37,1276.00,6320.35
877,872.45,1277.00,6148.31
878,872.52,1278.00,5914.70
879,872.60,1279.00,5624.89
880,872.68,1280.00,5419.06
881,872.75,1281.00,5396.61
882,872.83,1282.00,5256.18
883,872.91,1283.00,5326.46
884,872.98,1284.00,5101.92
885,873.06,1285.00,5166.11
886,873.13,1286.00,5080.85
887,873.21,1287.00,5040.43
888,873.29,1288.00,5198.84
889,873.36,1289.00,5130.19
890,873.44,1290.00,5340.16
891,873.52,1291.00,5242.22
892,873.59,1292.00,5165.74
893,873.67,1293.00,5192.28
894,873.74,1294.00,5076.89
895,873.82,1295.00,4929.68
896,873.90,1296.00,4738.58
897,873.97,1297.00,4411.54
898,874.05,1298.00,4325.66
899,874.13,1299.00,4069.44
900,874.20,1300.00,3916.12
901,874.28,1301.00,3816.84
902,874.36,1302.00,3611.28
903,874.43,1303.00,3484.18
904,874.51,1304.00,3491.77
905,874.58,1305.00,3365.33
906,874.66,1306.00,3326.68
907,874.74,1307.00,3351.38
908,874.81,1308.00,3365.14
909,874.89,1309.00,3388.57
910,874.97,1310.00,3443.42
911,875.04,1311.00,3449.08
912,875.12,1312.00,3505.67
913,875.20,1313.00,3636.52
914,875.27,1314.00,3729.64
915,875.35,1315.00,3947.60
916,875.43,1316.00,4131.08
917,875.50,1317.00,4586.25
918,875.58,1318.00,4829.78
919,875.66,1319.00,5256.75
920,875.73,1320.00,5670.18
921,875.81,1321.00,6222.56
922,875.89,1322.00,6691.03
923,875.96,1323.00,7319.07
924,876.04,1324.00,7779.14
925,876.12,1325.00,8351.02
926,876.19,1326.00,8900.60
927,876.27,1327.00,9201.78
928,876.35,1328.00,9527.46
929,876.42,1329.00,9682.16
930,876.50,1330.00,9936.18
931,876.58,1331.00,9969.12
932,876.65,1332.00,10185.61
933,876.73,1333.00,10232.69
934,876.81,1334.00,10341.68
935,876.89,1335.00,10505.44
936,876.96,1336.00,10621.76
937,877.04,1337.00,10743.94
938,877.12,1338.00,10862.31
939,877.19,1339.00,10908.82
940,877.27,1340.00,11164.88
941,877.35,1341.00,11150.66
942,877.42,1342.00,11399.07
943,877.50,1343.00,11376.47
944,877.58,1344.00,11522.94
945,877.65,1345.00,11517.43
946,877.73,1346.00,11434.66
947,877.81,1347.00,11290.46
948,877.89,1348.00,11134.17
949,877.96,1349.00,10731.16
950,878.04,1350.00,10541.17
951,878.12,1351.00,10146.74
952,878.19,1352.00,9717.06
953,878.27,1353.00,9398.29
954,878.35,1354.00,9052.78
955,878.43,1355.00,8621.35
956,878.50,1356.00,8265.11
957,878.58,1357.00,7865.12
958,878.66,1358.00,7622.80
959,878.73,1359.00,7207.51
960,878.81,1360.00,6926.21
961,878.89,1361.00,6695.32
962,878.97,1362.00,6418.38
963,879.04,1363.00,6199.88
964,879.12,1364.00,6005.28
965,879.20,1365.00,5713.73
966,879.28,1366.00,5584.51
967,879.35,1367.00,5362.55
968,879.43,1368.00,5311.65
969,879.51,1369.00,5146.34
970,879.58,1370.00,5159.62
971,879.66,1371.00,4917.06
972,879.74,1372.00,4926.73
973,879.82,1373.00,4879.02
974,879.89,1374.00,5024.89
975,879.97,1375.00,4966.47
976,880.05,1376.00,5155.91
977,880.13,1377.00,5077.80
978,880.20,1378.00,5181.72
979,880.28,1379.00,5174.40
980,880.36,1380.00,5128.32
981,880.44,1381.00,5090.99
982,880.51,1382.00,5078.55
983,880.59,1383.00,4906.85
984,880.67,1384.00,5034.00
985,880.75,1385.00,4765.81
986,880.82,1386.00,4633.41
987,880.90,1387.00,4649.32
988,880.98,1388.00,4619.50
989,881.06,1389.00,4431.66
990,881.13,1390.00,4298.59
991,881.21,1391.00,4173.39
992,881.29,1392.00,4190.77
993,881.37,1393.00,4031.61
994,881.45,1394.00,3947.02
995,881.52,1395.00,3930.17
996,881.60,1396.00,3777.24
997,881.68,1397.00,3604.77
998,881.76,1398.00,3584.63
999,881.83,1399.00,3424.00
1000,881.91,1400.00,3449.50
1001,881.99,1401.00,3288.61
1002,882.07,1402.00,3222.53
1003,882.15,1403.00,3231.15
1004,882.22,1404.00,3170.61
1005,882.30,1405.00,3267.21
1006,882.38,1406.00,3311.66
1007,882.46,1407.00,3356.27
1008,882.53,1408.00,3528.46
1009,882.61,1409.00,3727.35
1010,882.69,1410.00,3880.87
1011,882.77,1411.00,4211.90
1012,882.85,1412.00,4390.13
1013,882.92,1413.00,4565.59
1014,883.00,1414.00,4810.50
1015,883.08,1415.00,4903.73
1016,883.16,1416.00,5478.72
1017,883.24,1417.00,5163.70
1018,883.31,1418.00,5303.14
1019,883.39,1419.00,5239.55
1020,883.47,1420.00,4930.01
1021,883.55,1421.00,4782.38
1022,883.63,1422.00,4249.08
1023,883.70,1423.00,3597.16
1024,883.78,1424.00,3287.94
1025,883.86,1425.00,2995.99
1026,883.94,1426.00,2790.00
1027,884.02,1427.00,2555.59
1028,884.10,1428.00,2411.93
1029,884.17,1429.00,2308.47
1030,884.25,1430.00,2116.94
1031,884.33,1431.00,2028.23
1032,884.41,1432.00,2051.31
1033,884.49,1433.00,1919.44
1034,884.56,1434.00,1977.92
1035,884.64,1435.00,1915.08
1036,884.72,1436.00,1962.41
1037,884.80,1437.00,2005.82
1038,884.88,1438.00,2000.96
1039,884.96,1439.00,1966.74
1040,885.03,1440.00,2012.65
1041,885.11,1441.00,2025.97
1042,885.19,1442.00,2111.51
1043,885.27,1443.00,2117.98
1044,885.35,1444.00,2212.35
1045,885.43,1445.00,2219.17
1046,885.50,1446.00,2329.17
1047,885.58,1447.00,2304.99
1048,885.66,1448.00,2471.54
1049,885.74,1449.00,2436.89
1050,885.82,1450.00,2668.88
1051,885.90,1451.00,2575.70
1052,885.98,1452.00,2728.22
1053,886.05,1453.00,2626.42
1054,886.13,1454.00,2801.28
1055,886.21,1455.00,2782.83
1056,886.29,1456.00,2953.24
1057,886.37,1457.00,2914.92
1058,886.45,1458.00,3106.49
1059,886.52,1459.00,3063.49
1060,886.60,1460.00,3136.22
1061,886.68,1461.00,3129.05
1062,886.76,1462.00,3192.01
1063,886.84,1463.00,3249.94
1064,886.92,1464.00,3249.10
1065,887.00,1465.00,3294.61
1066,887.08,1466.00,3320.98
1067,887.15,1467.00,3228.50
1068,887.23,1468.00,3230.23
1069,887.31,1469.00,3212.01
1070,887.39,1470.00,3213.19
1071,887.47,1471.00,3253.86
1072,887.55,1472.00,3167.46
1073,887.63,1473.00,3056.96
1074,887.71,1474.00,3054.08
1075,887.78,1475.00,2863.64
1076,887.86,1476.00,2639.82
1077,887.94,1477.00,2648.89
1078,888.02,1478.00,2430.95
1079,888.10,1479.00,2212.25
1080,888.18,1480.00,1922.82
1081,888.26,1481.00,1626.26
1082,888.34,1482.00,1481.80
1083,888.42,1483.00,1250.79
1084,888.49,1484.00,1085.39
1085,888.57,1485.00,861.19
1086,888.65,1486.00,765.03
1087,888.73,1487.00,626.55
1088,888.81,1488.00,502.66
1089,888.89,1489.00,482.75
1090,888.97,1490.00,395.62
1091,889.05,1491.00,429.17
1092,889.13,1492.00,403.23
1093,889.21,1493.00,406.04
1094,889.28,1494.00,464.22
1095,889.36,1495.00,398.98
1096,889.44,1496.00,528.66
1097,889.52,1497.00,520.33
1098,889.60,1498.00,424.77
1099,889.68,1499.00,582.26
1100,889.76,1500.00,515.70
1101,889.84,1501.00,385.28
1102,889.92,1502.00,318.52
1103,890.00,1503.00,204.73
1104,890.08,1504.00,99.46
1105,890.15,1505.00,85.68
1106,890.23,1506.00,95.06
1107,890.31,1507.00,101.47
1108,890.39,1508.00,117.36
1109,890.47,1509.00,66.79
1110,890.55,1510.00,114.46
1111,890.63,1511.00,91.94
1112,890.71,1512.00,98.17
1113,890.79,1513.00,96.55
1114,890.87,1514.00,75.16
1115,890.95,1515.00,113.21
1116,891.03,1516.00,73.16
1117,891.11,1517.00,135.85
1118,891.19,1518.00,129.28
1119,891.27,1519.00,112.74
1120,891.35,1520.00,110.17
1121,891.42,1521.00,106.02
1122,891.50,1522.00,63.72
1123,891.58,1523.00,62.91
1124,891.66,1524.00,69.13
1125,891.74,1525.00,95.51
1126,891.82,1526.00,85.05
1127,891.90,1527.00,145.52
1128,891.98,1528.00,116.04
1129,892.06,1529.00,148.38
1130,892.14,1530.00,131.03
1131,892.22,1531.00,130.65
1132,892.30,1532.00,110.93
1133,892.38,1533.00,161.33
1134,892.46,1534.00,119.60
1135,892.54,1535.00,79.44
1136,892.62,1536.00,74.62
1137,892.70,1537.00,71.84
1138,892.78,1538.00,40.81
1139,892.86,1539.00,63.84
1140,892.94,1540.00,121.02
1141,893.02,1541.00,125.06
1142,893.10,1542.00,77.22
1143,893.18,1543.00,118.30
1144,893.26,1544.00,115.05
1145,893.34,1545.00,150.86
1146,893.42,1546.00,104.04
1147,893.50,1547.00,131.74
1148,893.58,1548.00,176.03
1149,893.66,1549.00,224.49
1150,893.73,1550.00,207.95
1151,893.81,1551.00,155.17
1152,893.89,1552.00,140.14
1153,893.97,1553.00,93.95
1154,894.05,1554.00,128.02
1155,894.13,1555.00,51.40
1156,894.21,1556.00,121.65
1157,894.29,1557.00,73.56
1158,894.37,1558.00,117.85
1159,894.45,1559.00,77.34
1160,894.53,1560.00,127.99
1161,894.61,1561.00,120.04
1162,894.69,1562.00,169.24
1163,894.77,1563.00,105.50
1164,894.85,1564.00,169.33
1165,894.93,1565.00,166.67
1166,895.01,1566.00,213.25
1167,895.09,1567.00,186.15
1168,895.18,1568.00,147.65
1169,895.26,1569.00,133.97
1170,895.34,1570.00,162.28
1171,895.42,1571.00,127.13
1172,895.50,1572.00,160.80
1173,895.58,1573.00,111.02
1174,895.66,1574.00,120.18
1175,895.74,1575.00,109.66
1176,895.82,1576.00,68.74
1177,895.90,1577.00,108.07
1178,895.98,1578.00,93.32
1179,896.06,1579.00,69.56
1180,896.14,1580.00,79.25
1181,896.22,1581.00,88.93
1182,896.30,1582.00,108.83
1183,896.38,1583.00,134.54
1184,896.46,1584.00,85.23
1185,896.54,1585.00,90.46
1186,896.62,1586.00,122.62
1187,896.70,1587.00,105.85
1188,896.78,1588.00,127.78
1189,896.86,1589.00,121.48
1190,896.94,1590.00,111.87
1191,897.02,1591.00,124.44
1192,897.10,1592.00,136.10
1193,897.18,1593.00,197.53
1194,897.26,1594.00,214.54
1195,897.34,1595.00,170.18
1196,897.42,1596.00,148.59
1197,897.50,1597.00,215.00
1198,897.59,1598.00,177.18
1199,897.67,1599.00,217.04
1200,897.75,1600.00,138.69
1201,897.83,1601.00,136.60
1202,897.91,1602.00,145.65
1203,897.99,1603.00,114.25
1204,898.07,1604.00,147.44
1205,898.15,1605.00,177.75
1206,898.23,1606.00,218.38
1207,898.31,1607.00,214.10
1208,898.39,1608.00,249.83
1209,898.47,1609.00,275.56
1210,898.55,1610.00,184.27
1211,898.63,1611.00,178.99
1212,898.71,1612.00,145.24
1213,898.80,1613.00,186.10
1214,898.88,1614.00,145.15
1215,898.96,1615.00,122.96
1216,899.04,1616.00,124.56
1217,899.12,1617.00,116.68
1218,899.20,1618.00,136.06
1219,899.28,1619.00,127.99
1220,899.36,1620.00,157.48
1221,899.44,1621.00,163.55
1222,899.52,1622.00,166.29
1223,899.60,1623.00,193.49
1224,899.69,1624.00,160.46
1225,899.77,1625.00,161.28
1226,899.85,1626.00,52.66
1227,899.93,1627.00,88.42
1228,900.01,1628.00,33.34
1229,900.09,1629.00,77.41
1230,900.17,1630.00,52.51
1231,900.25,1631.00,62.39
1232,900.33,1632.00,47.59
1233,900.41,1633.00,45.97
1234,900.50,1634.00,56.95
1235,900.58,1635.00,78.65
1236,900.66,1636.00,71.82
1237,900.74,1637.00,184.86
1238,900.82,1638.00,126.40
1239,900.90,1639.00,177.54
1240,900.98,1640.00,191.08
1241,901.06,1641.00,247.65
1242,901.14,1642.00,146.40
1243,901.23,1643.00,136.36
1244,901.31,1644.00,52.17
1245,901.39,1645.00,90.42
1246,901.47,1646.00,23.60
1247,901.55,1647.00,35.74
1248,901.63,1648.00,38.51
1249,901.71,1649.00,85.48
1250,901.79,1650.00,62.14
1251,901.88,1651.00,76.99
1252,901.96,1652.00,57.02
1253,902.04,1653.00,74.67
1254,902.12,1654.00,51.13
1255,902.20,1655.00,48.63
1256,902.28,1656.00,60.76
1257,902.36,1657.00,86.53
1258,902.45,1658.00,124.63
1259,902.53,1659.00,57.31
1260,902.61,1660.00,96.73
1261,902.69,1661.00,33.38
1262,902.77,1662.00,19.51
1263,902.85,1663.00,8.19
1264,902.93,1664.00,77.94
1265,903.02,1665.00,75.18
1266,903.10,1666.00,72.12
1267,903.18,1667.00,46.87
1268,903.26,1668.00,50.26
1269,903.34,1669.00,22.87
1270,903.42,1670.00,79.60
1271,903.51,1671.00,26.96
1272,903.59,1672.00,61.63
1273,903.67,1673.00,41.28
1274,903.75,1674.00,82.08
1275,903.83,1675.00,37.66
1276,903.91,1676.00,51.55
1277,904.00,1677.00,36.00
1278,904.08,1678.00,115.47
1279,904.16,1679.00,58.75
1280,904.24,1680.00,190.01
1281,904.32,1681.00,104.97
1282,904.40,1682.00,203.69
1283,904.49,1683.00,112.65
1284,904.57,1684.00,134.42
1285,904.65,1685.00,98.00
1286,904.73,1686.00,176.43
1287,904.81,1687.00,53.09
1288,904.90,1688.00,74.32
1289,904.98,1689.00,49.12
1290,905.06,1690.00,113.27
1291,905.14,1691.00,40.23
1292,905.22,1692.00,30.32
1293,905.31,1693.00,29.78
1294,905.39,1694.00,40.58
1295,905.47,1695.00,11.10
1296,905.55,1696.00,20.73
1297,905.63,1697.00,16.17
1298,905.72,1698.00,42.55
1299,905.80,1699.00,49.31
1300,905.88,1700.00,42.70
1301,905.96,1701.00,76.34
1302,906.04,1702.00,140.99
1303,906.13,1703.00,119.84
1304,906.21,1704.00,136.26
1305,906.29,1705.00,159.23
1306,906.37,1706.00,313.24
1307,906.45,1707.00,161.95
1308,906.54,1708.00,174.46
1309,906.62,1709.00,119.11
1310,906.70,1710.00,114.72
1311,906.78,1711.00,57.13
1312,906.87,1712.00,104.24
1313,906.95,1713.00,8.14
1314,907.03,1714.00,84.78
1315,907.11,1715.00,61.40
1316,907.19,1716.00,67.68
1317,907.28,1717.00,35.69
1318,907.36,1718.00,85.10
1319,907.44,1719.00,62.03
1320,907.52,1720.00,93.85
1321,907.61,1721.00,77.58
1322,907.69,1722.00,146.78
1323,907.77,1723.00,100.24
1324,907.85,1724.00,113.90
1325,907.94,1725.00,63.95
1326,908.02,1726.00,92.45
1327,908.10,1727.00,119.18
1328,908.18,1728.00,102.83
1329,908.27,1729.00,84.86
1330,908.35,1730.00,126.89
1331,908.43,1731.00,105.40
1332,908.51,1732.00,89.42
1333,908.60,1733.00,76.32
1334,908.68,1734.00,85.13
1335,908.76,1735.00,55.78
1336,908.84,1736.00,84.80
1337,908.93,1737.00,29.68
1338,909.01,1738.00,86.73
1339,909.09,1739.00,38.41
1340,909.17,1740.00,52.15
1341,909.26,1741.00,58.19
1342,909.34,1742.00,50.55
1343,909.42,1743.00,67.79
1344,909.50,1744.00,65.85
1345,909.59,1745.00,54.50
1346,909.67,1746.00,84.49
1347,909.75,1747.00,75.74
1348,909.84,1748.00,94.89
1349,909.92,1749.00,80.01
1350,910.00,1750.00,88.58
1351,910.08,1751.00,96.88
1352,910.17,1752.00,98.82
1353,910.25,1753.00,71.29
1354,910.33,1754.00,102.06
1355,910.42,1755.00,79.57
1356,910.50,1756.00,100.98
1357,910.58,1757.00,99.71
1358,910.66,1758.00,94.24
1359,910.75,1759.00,110.35
1360,910.83,1760.00,112.81
1361,910.91,1761.00,101.08
1362,911.00,1762.00,152.27
1363,911.08,1763.00,144.56
1364,911.16,1764.00,158.13
1365,911.24,1765.00,140.82
1366,911.33,1766.00,145.35
1367,911.41,1767.00,133.46
1368,911.49,1768.00,131.83
1369,911.58,1769.00,115.53
1370,911.66,1770.00,135.43
1371,911.74,1771.00,117.33
1372,911.83,1772.00,122.89
1373,911.91,1773.00,122.18
1374,911.99,1774.00,132.13
1375,912.08,1775.00,141.00
1376,912.16,1776.00,146.01
1377,912.24,1777.00,126.69
1378,912.33,1778.00,152.17
1379,912.41,1779.00,142.65
1380,912.49,1780.00,140.24
1381,912.58,1781.00,157.10
1382,912.66,1782.00,121.52
1383,912.74,1783.00,133.18
1384,912.83,1784.00,136.32
1385,912.91,1785.00,94.31
1386,912.99,1786.00,109.46
1387,913.08,1787.00,105.19
1388,913.16,1788.00,88.38
1389,913.24,1789.00,86.02
1390,913.33,1790.00,86.43
1391,913.41,1791.00,79.37
1392,913.49,1792.00,86.63
1393,913.58,1793.00,65.82
1394,913.66,1794.00,84.92
1395,913.74,1795.00,80.34
1396,913.83,1796.00,97.38
1397,913.91,1797.00,78.88
1398,913.99,1798.00,71.47
1399,914.08,1799.00,76.31
1400,914.16,1800.00,80.00
1401,914.24,1801.00,78.01
1402,914.33,1802.00,78.47
1403,914.41,1803.00,66.42
1404,914.49,1804.00,78.21
1405,914.58,1805.00,74.81
1406,914.66,1806.00,66.68
1407,914.75,1807.00,49.09
1408,914.83,1808.00,86.79
1409,914.91,1809.00,40.79
1410,915.00,1810.00,81.49
1411,915.08,1811.00,75.51
1412,915.16,1812.00,92.01
1413,915.25,1813.00,64.89
1414,915.33,1814.00,68.12
1415,915.42,1815.00,58.69
1416,915.50,1816.00,80.60
1417,915.58,1817.00,65.30
1418,915.67,1818.00,64.95
1419,915.75,1819.00,56.66
1420,915.83,1820.00,52.31
1421,915.92,1821.00,58.14
1422,916.00,1822.00,47.55
1423,916.09,1823.00,26.09
1424,916.17,1824.00,62.21
1425,916.25,1825.00,13.51
1426,916.34,1826.00,43.77
1427,916.42,1827.00,48.68
1428,916.51,1828.00,48.10
1429,916.59,1829.00,32.48
1430,916.67,1830.00,36.35
1431,916.76,1831.00,51.12
1432,916.84,1832.00,58.97
1433,916.93,1833.00,57.61
1434,917.01,1834.00,84.36
1435,917.09,1835.00,69.86
1436,917.18,1836.00,83.95
1437,917.26,1837.00,65.65
1438,917.35,1838.00,73.24
1439,917.43,1839.00,35.33
1440,917.52,1840.00,84.95
1441,917.60,1841.00,28.19
1442,917.68,1842.00,57.10
1443,917.77,1843.00,49.31
1444,917.85,1844.00,51.52
1445,917.94,1845.00,23.40
1446,918.02,1846.00,32.16
1447,918.11,1847.00,38.53
1448,918.19,1848.00,42.43
1449,918.27,1849.00,27.21
1450,918.36,1850.00,54.08
1451,918.44,1851.00,41.37
1452,918.53,1852.00,46.43
1453,918.61,1853.00,45.99
1454,918.70,1854.00,56.43
1455,918.78,1855.00,33.88
1456,918.86,1856.00,88.19
1457,918.95,1857.00,40.70
1458,919.03,1858.00,80.93
1459,919.12,1859.00,78.28
1460,919.20,1860.00,79.80
1461,919.29,1861.00,39.50
1462,919.37,1862.00,58.14
1463,919.46,1863.00,46.04
1464,919.54,1864.00,34.38
1465,919.62,1865.00,29.22
1466,919.71,1866.00,52.11
1467,919.79,1867.00,33.03
1468,919.88,1868.00,29.97
1469,919.96,1869.00,31.29
1470,920.05,1870.00,16.00
1471,920.13,1871.00,9.91
1472,920.22,1872.00,35.93
1473,920.30,1873.00,6.39
1474,920.39,1874.00,20.49
1475,920.47,1875.00,34.28
1476,920.56,1876.00,22.87
1477,920.64,1877.00,16.84
1478,920.73,1878.00,25.13
1479,920.81,1879.00,23.80
1480,920.90,1880.00,25.12
1481,920.98,1881.00,12.79
1482,921.06,1882.00,43.08
1483,921.15,1883.00,17.92
1484,921.23,1884.00,35.70
1485,921.32,1885.00,22.25
1486,921.40,1886.00,32.65
1487,921.49,1887.00,20.81
1488,921.57,1888.00,51.19
1489,921.66,1889.00,12.44
1490,921.74,1890.00,40.48
1491,921.83,1891.00,55.89
1492,921.91,1892.00,36.70
1493,922.00,1893.00,19.68
1494,922.08,1894.00,35.17
1495,922.17,1895.00,39.75
1496,922.25,1896.00,46.99
1497,922.34,1897.00,19.10
1498,922.42,1898.00,60.43
1499,922.51,1899.00,44.17
1500,922.59,1900.00,43.40
1501,922.68,1901.00,54.57
1502,922.76,1902.00,51.50
1503,922.85,1903.00,58.10
1504,922.93,1904.00,75.27
1505,923.02,1905.00,52.84
1506,923.11,1906.00,52.30
1507,923.19,1907.00,51.72
1508,923.28,1908.00,36.34
1509,923.36,1909.00,22.72
1510,923.45,1910.00,39.54
1511,923.53,1911.00,29.82
1512,923.62,1912.00,48.90
1513,923.70,1913.00,12.65
1514,923.79,1914.00,41.40
1515,923.87,1915.00,12.01
1516,923.96,1916.00,16.67
1517,924.04,1917.00,20.75
1518,924.13,1918.00,23.31
1519,924.21,1919.00,21.11
1520,924.30,1920.00,38.91
1521,924.39,1921.00,30.67
1522,924.47,1922.00,35.01
1523,924.56,1923.00,10.78
1524,924.64,1924.00,19.93
1525,924.73,1925.00,9.31
1526,924.81,1926.00,38.71
1527,924.90,1927.00,27.37
1528,924.98,1928.00,67.02
1529,925.07,1929.00,17.60
1530,925.16,1930.00,37.75
1531,925.24,1931.00,15.08
1532,925.33,1932.00,32.18
1533,925.41,1933.00,20.25
1534,925.50,1934.00,18.19
1535,925.58,1935.00,9.88
1536,925.67,1936.00,10.60
1537,925.75,1937.00,5.08
1538,925.84,1938.00,12.12
1539,925.93,1939.00,0.00
1540,926.01,1940.00,5.01
1541,926.10,1941.00,0.76
1542,926.18,1942.00,4.93
1543,926.27,1943.00,2.26
1544,926.35,1944.00,14.95
1545,926.44,1945.00,7.65
1546,926.53,1946.00,13.36
1547,926.61,1947.00,13.75
1548,926.70,1948.00,32.32
1549,926.78,1949.00,25.79
1550,926.87,1950.00,34.98
1551,926.96,1951.00,44.60
1552,927.04,1952.00,37.76
1553,927.13,1953.00,56.63
1554,927.21,1954.00,23.26
1555,927.30,1955.00,0.00
1556,927.39,1956.00,31.74
1557,927.47,1957.00,18.55
1558,927.56,1958.00,19.91
1559,927.64,1959.00,17.19
1560,927.73,1960.00,31.87
1561,927.82,1961.00,7.58
1562,927.90,1962.00,15.19
1563,927.99,1963.00,8.32
1564,928.07,1964.00,14.26
1565,928.16,1965.00,0.66
1566,928.25,1966.00,12.10
1567,928.33,1967.00,4.58
1568,928.42,1968.00,34.17
1569,928.51,1969.00,25.88
1570,928.59,1970.00,19.02
1571,928.68,1971.00,6.84
1572,928.76,1972.00,27.51
1573,928.85,1973.00,36.18
1574,928.94,1974.00,20.33
1575,929.02,1975.00,29.94
1576,929.11,1976.00,32.05
1577,929.20,1977.00,0.00
1578,929.28,1978.00,9.53
1579,929.37,1979.00,20.05
1580,929.45,1980.00,1.98
1581,929.54,1981.00,8.53
1582,929.63,1982.00,19.93
1583,929.71,1983.00,12.23
1584,929.80,1984.00,36.23
1585,929.89,1985.00,24.86
1586,929.97,1986.00,27.85
1587,930.06,1987.00,15.87
1588,930.15,1988.00,29.23
1589,930.23,1989.00,37.07
1590,930.32,1990.00,34.40
1591,930.41,1991.00,38.84
1592,930.49,1992.00,37.90
1593,930.58,1993.00,28.81
1594,930.67,1994.00,22.47
1595,930.75,1995.00,48.47
1596,930.84,1996.00,0.41
1597,930.93,1997.00,40.35
1598,931.01,1998.00,15.20
1599,931.10,1999.00,7.62
1600,931.19,2000.00,12.05
1601,931.27,2001.00,21.90
1602,931.36,2002.00,0.00
1603,931.45,2003.00,3.71
1604,931.53,2004.00,1.59
1605,931.62,2005.00,0.00
1606,931.71,2006.00,3.44
1607,931.79,2007.00,2.84
1608,931.88,2008.00,0.00
1609,931.97,2009.00,0.00
1610,932.05,2010.00,0.00
1611,932.14,2011.00,5.26
1612,932.23,2012.00,0.83
1613,932.31,2013.00,7.66
1614,932.40,2014.00,20.58
1615,932.49,2015.00,0.00
1616,932.57,2016.00,31.25
1617,932.66,2017.00,58.97
1618,932.75,2018.00,0.00
1619,932.84,2019.00,12.63
1620,932.92,2020.00,5.16
1621,933.01,2021.00,0.00
1622,933.10,2022.00,1.81
1623,933.18,2023.00,2.60
1624,933.27,2024.00,0.00
1625,933.36,2025.00,0.00
1626,933.45,2026.00,0.00
1627,933.53,2027.00,1.82
1628,933.62,2028.00,0.00
1629,933.71,2029.00,8.83
1630,933.79,2030.00,0.00
1631,933.88,2031.00,14.22
1632,933.97,2032.00,1.02
1633,934.06,2033.00,18.83
1634,934.14,2034.00,0.00
1635,934.23,2035.00,26.19
1636,934.32,2036.00,4.79
1637,934.40,2037.00,10.98
1638,934.49,2038.00,15.50
1639,934.58,2039.00,5.18
1640,934.67,2040.00,15.48
1641,934.75,2041.00,5.83
1642,934.84,2042.00,2.99
1643,934.93,2043.00,7.78
1644,935.02,2044.00,6.50
1645,935.10,2045.00,10.19
1646,935.19,2046.00,18.45
1647,935.28,2047.00,35.12
1648,935.37,2048.00,8.02
1649,935.45,2049.00,14.98
1650,935.54,2050.00,8.20
1651,935.63,2051.00,8.68
1652,935.72,2052.00,44.49
1653,935.80,2053.00,24.87
1654,935.89,2054.00,41.88
1655,935.98,2055.00,2.17
1656,936.07,2056.00,6.58
1657,936.15,2057.00,30.86
1658,936.24,2058.00,15.13
1659,936.33,2059.00,12.69
1660,936.42,2060.00,9.84
1661,936.51,2061.00,6.47
1662,936.59,2062.00,29.26
1663,936.68,2063.00,31.49
1664,936.77,2064.00,34.30
1665,936.86,2065.00,58.70
1666,936.94,2066.00,54.30
1667,937.03,2067.00,37.26
1668,937.12,2068.00,80.27
1669,937.21,2069.00,42.75
1670,937.30,2070.00,33.70
1671,937.38,2071.00,0.00
1672,937.47,2072.00,1.66
1673,937.56,2073.00,12.46
1674,937.65,2074.00,13.98
1675,937.73,2075.00,1.70
1676,937.82,2076.00,5.91
1677,937.91,2077.00,2.42
1678,938.00,2078.00,3.80
1679,938.09,2079.00,3.88
1680,938.17,2080.00,3.68
1681,938.26,2081.00,0.00
1682,938.35,2082.00,0.00
1683,938.44,2083.00,20.22
1684,938.53,2084.00,22.10
1685,938.61,2085.00,3.47
1686,938.70,2086.00,0.31
1687,938.79,2087.00,6.57
1688,938.88,2088.00,3.79
1689,938.97,2089.00,0.00
1690,939.06,2090.00,0.00
1691,939.14,2091.00,3.22
1692,939.23,2092.00,12.11
1693,939.32,2093.00,0.00
1694,939.41,2094.00,8.24
1695,939.50,2095.00,6.17
1696,939.58,2096.00,26.14
1697,939.67,2097.00,0.00
1698,939.76,2098.00,0.00
1699,939.85,2099.00,37.00
1700,939.94,2100.00,26.34
1701,940.03,2101.00,0.00
1702,940.11,2102.00,14.65
1703,940.20,2103.00,7.99
1704,940.29,2104.00,48.06
1705,940.38,2105.00,0.00
1706,940.47,2106.00,3.42
1707,940.56,2107.00,16.76
1708,940.65,2108.00,0.00
1709,940.73,2109.00,0.00
1710,940.82,2110.00,16.78
1711,940.91,2111.00,0.00
1712,941.00,2112.00,41.83
1713,941.09,2113.00,25.18
1714,941.18,2114.00,17.65
1715,941.27,2115.00,27.19
1716,941.35,2116.00,17.37
1717,941.44,2117.00,42.79
1718,941.53,2118.00,31.46
1719,941.62,2119.00,7.60
1720,941.71,2120.00,14.37
1721,941.80,2121.00,0.00
1722,941.89,2122.00,0.97
1723,941.97,2123.00,1.47
1724,942.06,2124.00,0.00
1725,942.15,2125.00,0.00
1726,942.24,2126.00,1.23
1727,942.33,2127.00,0.00
1728,942.42,2128.00,2.05
1729,942.51,2129.00,0.00
1730,942.60,2130.00,3.53
1731,942.68,2131.00,8.36
1732,942.77,2132.00,33.56
1733,942.86,2133.00,23.33
1734,942.95,2134.00,49.95
1735,943.04,2135.00,37.43
1736,943.13,2136.00,6.23
1737,943.22,2137.00,0.00
1738,943.31,2138.00,52.33
1739,943.40,2139.00,6.30
1740,943.49,2140.00,37.65
1741,943.57,2141.00,16.63
1742,943.66,2142.00,22.82
1743,943.75,2143.00,0.00
1744,943.84,2144.00,5.93
1745,943.93,2145.00,5.08
1746,944.02,2146.00,8.54
1747,944.11,2147.00,4.48
1748,944.20,2148.00,18.50
1749,944.29,2149.00,14.38
1750,944.38,2150.00,18.16
1751,944.47,2151.00,0.38
1752,944.55,2152.00,0.00
1753,944.64,2153.00,0.00
1754,944.73,2154.00,19.89
1755,944.82,2155.00,0.00
1756,944.91,2156.00,5.94
1757,945.00,2157.00,10.97
1758,945.09,2158.00,24.73
1759,945.18,2159.00,0.00
1760,945.27,2160.00,22.59
1761,945.36,2161.00,15.05
1762,945.45,2162.00,28.05
1763,945.54,2163.00,9.26
1764,945.63,2164.00,34.23
1765,945.72,2165.00,43.22
1766,945.81,2166.00,35.65
1767,945.89,2167.00,4.60
1768,945.98,2168.00,17.52
1769,946.07,2169.00,5.86
1770,946.16,2170.00,28.30
1771,946.25,2171.00,4.18
1772,946.34,2172.00,5.68
1773,946.43,2173.00,10.65
1774,946.52,2174.00,20.09
1775,946.61,2175.00,3.62
1776,946.70,2176.00,11.39
1777,946.79,2177.00,0.00
1778,946.88,2178.00,14.20
1779,946.97,2179.00,9.15
1780,947.06,2180.00,22.73
1781,947.15,2181.00,34.32
1782,947.24,2182.00,28.58
1783,947.33,2183.00,10.83
1784,947.42,2184.00,19.33
1785,947.51,2185.00,8.74
1786,947.60,2186.00,31.13
1787,947.69,2187.00,1.71
1788,947.78,2188.00,18.99
1789,947.87,2189.00,19.29
1790,947.96,2190.00,21.88
1791,948.05,2191.00,5.04
1792,948.14,2192.00,6.29
1793,948.23,2193.00,0.00
1794,948.32,2194.00,11.38
1795,948.41,2195.00,13.46
1796,948.50,2196.00,16.86
1797,948.59,2197.00,21.14
1798,948.68,2198.00,15.53
1799,948.77,2199.00,0.00
1800,948.86,2200.00,6.38
1801,948.95,2201.00,5.20
1802,949.04,2202.00,8.11
1803,949.13,2203.00,0.00
1804,949.22,2204.00,1.35
1805,949.31,2205.00,5.96
1806,949.40,2206.00,11.70
1807,949.49,2207.00,3.77
1808,949.58,2208.00,6.26
1809,949.67,2209.00,0.00
1810,949.76,2210.00,12.90
1811,949.85,2211.00,14.60
1812,949.94,2212.00,27.76
1813,950.03,2213.00,18.84
1814,950.12,2214.00,18.84
1815,950.21,2215.00,0.00
1816,950.30,2216.00,18.50
1817,950.39,2217.00,10.28
1818,950.48,2218.00,28.62
1819,950.57,2219.00,4.61
1820,950.66,2220.00,14.75
1821,950.75,2221.00,18.74
1822,950.84,2222.00,20.49
1823,950.93,2223.00,10.10
1824,951.02,2224.00,0.52
1825,951.11,2225.00,0.00
1826,951.20,2226.00,6.71
1827,951.29,2227.00,9.36
1828,951.38,2228.00,22.13
1829,951.47,2229.00,13.64
1830,951.57,2230.00,17.16
1831,951.66,2231.00,0.00
1832,951.75,2232.00,5.33
1833,951.84,2233.00,0.00
1834,951.93,2234.00,0.89
1835,952.02,2235.00,3.93
1836,952.11,2236.00,0.00
1837,952.20,2237.00,0.63
1838,952.29,2238.00,3.70
1839,952.38,2239.00,0.00
1840,952.47,2240.00,0.00
1841,952.56,2241.00,0.00
1842,952.65,2242.00,0.00
1843,952.74,2243.00,0.00
1844,952.83,2244.00,15.71
1845,952.93,2245.00,4.33
1846,953.02,2246.00,22.73
1847,953.11,2247.00,0.00
1848,953.20,2248.00,19.50
1849,953.29,2249.00,9.63
1850,953.38,2250.00,6.76
1851,953.47,2251.00,16.16
1852,953.56,2252.00,1.78
1853,953.65,2253.00,0.17
1854,953.74,2254.00,9.85
1855,953.83,2255.00,3.88
1856,953.93,2256.00,0.00
1857,954.02,2257.00,0.00
1858,954.11,2258.00,2.35
1859,954.20,2259.00,0.22
1860,954.29,2260.00,23.09
1861,954.38,2261.00,6.22
1862,954.47,2262.00,24.36
1863,954.56,2263.00,0.00
1864,954.65,2264.00,17.35
1865,954.75,2265.00,22.49
1866,954.84,2266.00,22.53
1867,954.93,2267.00,8.28
1868,955.02,2268.00,0.00
1869,955.11,2269.00,9.44
1870,955.20,2270.00,19.03
1871,955.29,2271.00,11.38
1872,955.38,2272.00,1.78
1873,955.47,2273.00,0.00
1874,955.57,2274.00,5.71
1875,955.66,2275.00,0.00
1876,955.75,2276.00,14.95
1877,955.84,2277.00,8.46
1878,955.93,2278.00,32.34
1879,956.02,2279.00,4.03
1880,956.11,2280.00,31.00
1881,956.21,2281.00,17.21
1882,956.30,2282.00,2.02
1883,956.39,2283.00,12.94
1884,956.48,2284.00,0.00
1885,956.57,2285.00,0.00
1886,956.66,2286.00,3.69
1887,956.75,2287.00,5.93
1888,956.85,2288.00,0.00
1889,956.94,2289.00,0.00
1890,957.03,2290.00,0.00
1891,957.12,2291.00,0.00
1892,957.21,2292.00,5.37
1893,957.30,2293.00,1.59
1894,957.40,2294.00,13.86
1895,957.49,2295.00,0.00
1896,957.58,2296.00,17.06
1897,957.67,2297.00,7.66
1898,957.76,2298.00,10.98
1899,957.85,2299.00,3.02
1900,957.95,2300.00,0.00
1901,958.04,2301.00,5.32
1902,958.13,2302.00,7.09
1903,958.22,2303.00,12.22
1904,958.31,2304.00,0.00
1905,958.41,2305.00,0.00
1906,958.50,2306.00,0.00
1907,958.59,2307.00,0.00
1908,958.68,2308.00,14.05
1909,958.77,2309.00,0.00
1910,958.86,2310.00,14.24
1911,958.96,2311.00,0.00
1912,959.05,2312.00,2.03
1913,959.14,2313.00,0.02
1914,959.23,2314.00,0.00
1915,959.32,2315.00,0.00
1916,959.42,2316.00,0.00
1917,959.51,2317.00,0.00
1918,959.60,2318.00,0.00
1919,959.69,2319.00,0.00
1920,959.79,2320.00,0.00
1921,959.88,2321.00,0.00
1922,959.97,2322.00,0.00
1923,960.06,2323.00,0.00
1924,960.15,2324.00,0.25
1925,960.25,2325.00,0.00
1926,960.34,2326.00,2.68
1927,960.43,2327.00,1.25
1928,960.52,2328.00,5.17
1929,960.61,2329.00,5.67
1930,960.71,2330.00,9.88
1931,960.80,2331.00,11.97
1932,960.89,2332.00,1.26
1933,960.98,2333.00,29.13
1934,961.08,2334.00,17.59
1935,961.17,2335.00,27.75
1936,961.26,2336.00,0.00
1937,961.35,2337.00,10.20
1938,961.45,2338.00,1.95
1939,961.54,2339.00,2.02
1940,961.63,2340.00,33.86
1941,961.72,2341.00,17.77
1942,961.82,2342.00,46.36
1943,961.91,2343.00,25.07
1944,962.00,2344.00,25.53
1945,962.09,2345.00,5.80
1946,962.19,2346.00,5.51
1947,962.28,2347.00,0.17
1948,962.37,2348.00,0.00
1949,962.46,2349.00,5.63
1950,962.56,2350.00,3.89
1951,962.65,2351.00,2.07
1952,962.74,2352.00,0.00
1953,962.83,2353.00,0.89
1954,962.93,2354.00,0.92
1955,963.02,2355.00,0.00
1956,963.11,2356.00,18.59
1957,963.21,2357.00,18.77
1958,963.30,2358.00,34.34
1959,963.39,2359.00,20.62
1960,963.48,2360.00,27.01
1961,963.58,2361.00,10.96
1962,963.67,2362.00,4.86
1963,963.76,2363.00,14.27
1964,963.86,2364.00,0.00
1965,963.95,2365.00,17.29
1966,964.04,2366.00,16.93
1967,964.13,2367.00,9.45
1968,964.23,2368.00,0.25
1969,964.32,2369.00,14.35
1970,964.41,2370.00,10.52
1971,964.51,2371.00,4.83
1972,964.60,2372.00,48.58
1973,964.69,2373.00,35.72
1974,964.79,2374.00,58.89
1975,964.88,2375.00,30.53
1976,964.97,2376.00,27.72
1977,965.06,2377.00,14.58
1978,965.16,2378.00,4.73
1979,965.25,2379.00,9.36
1980,965.34,2380.00,0.00
1981,965.44,2381.00,8.89
1982,965.53,2382.00,10.76
1983,965.62,2383.00,3.56
1984,965.72,2384.00,3.61
1985,965.81,2385.00,5.87
1986,965.90,2386.00,4.26
1987,966.00,2387.00,0.18
1988,966.09,2388.00,32.77
1989,966.18,2389.00,26.60
1990,966.28,2390.00,54.30
1991,966.37,2391.00,26.72
1992,966.46,2392.00,53.98
1993,966.56,2393.00,24.70
1994,966.65,2394.00,36.12
1995,966.74,2395.00,15.59
1996,966.84,2396.00,2.66
1997,966.93,2397.00,26.65
1998,967.02,2398.00,29.65
1999,967.12,2399.00,3.19
2000,967.21,2400.00,17.35
