Pixel,Wavelength,Wavenumber,Processed
0,810.44,400.00,3643.41
1,810.50,401.00,3815.32
2,810.57,402.00,4032.33
3,810.64,403.00,4295.90
4,810.70,404.00,4681.59
5,810.77,405.00,5105.68
6,810.83,406.00,5505.40
7,810.90,407.00,5989.74
8,810.96,408.00,6499.44
9,811.03,409.00,6863.14
10,811.10,410.00,7301.45
11,811.16,411.00,7696.82
12,811.23,412.00,7988.19
13,811.29,413.00,8168.09
14,811.36,414.00,8252.90
15,811.42,415.00,8256.11
16,811.49,416.00,8239.94
17,811.56,417.00,7987.65
18,811.62,418.00,7816.85
19,811.69,419.00,7499.39
20,811.75,420.00,7087.91
21,811.82,421.00,6638.72
22,811.89,422.00,6209.35
23,811.95,423.00,5801.84
24,812.02,424.00,5365.61
25,812.08,425.00,5106.18
26,812.15,426.00,4735.22
27,812.22,427.00,4466.76
28,812.28,428.00,4187.33
29,812.35,429.00,4103.39
30,812.41,430.00,3843.29
31,812.48,431.00,3850.30
32,812.55,432.00,3663.37
33,812.61,433.00,3578.97
34,812.68,434.00,3433.38
35,812.74,435.00,3456.08
36,812.81,436.00,3256.89
37,812.88,437.00,3184.12
38,812.94,438.00,3156.24
39,813.01,439.00,3001.17
40,813.07,440.00,3047.07
41,813.14,441.00,2882.84
42,813.21,442.00,2907.56
43,813.27,443.00,2828.53
44,813.34,444.00,2772.40
45,813.40,445.00,2738.11
46,813.47,446.00,2698.20
47,813.54,447.00,2665.10
48,813.60,448.00,2666.43
49,813.67,449.00,2676.11
50,813.74,450.00,2641.29
51,813.80,451.00,2669.43
52,813.87,452.00,2678.80
53,813.93,453.00,2755.66
54,814.00,454.00,2832.09
55,814.07,455.00,3047.25
56,814.13,456.00,3177.69
57,814.20,457.00,3270.29
58,814.27,458.00,3471.43
59,814.33,459.00,3719.78
60,814.40,460.00,3826.92
61,814.46,461.00,4158.28
62,814.53,462.00,4461.31
63,814.60,463.00,4936.57
64,814.66,464.00,5303.21
65,814.73,465.00,5872.61
66,814.80,466.00,6279.90
67,814.86,467.00,6930.76
68,814.93,468.00,7457.72
69,815.00,469.00,8059.81
70,815.06,470.00,8744.05
71,815.13,471.00,9484.29
72,815.20,472.00,10126.82
73,815.26,473.00,10840.67
74,815.33,474.00,11494.04
75,815.39,475.00,12076.78
76,815.46,476.00,12630.90
77,815.53,477.00,12975.51
78,815.59,478.00,13419.36
79,815.66,479.00,13574.12
80,815.73,480.00,13811.34
81,815.79,481.00,13821.62
82,815.86,482.00,13785.85
83,815.93,483.00,13803.99
84,815.99,484.00,13570.08
85,816.06,485.00,13477.91
86,816.13,486.00,13150.36
87,816.19,487.00,12966.00
88,816.26,488.00,12498.52
89,816.33,489.00,12304.41
90,816.39,490.00,11954.36
91,816.46,491.00,11699.38
92,816.53,492.00,11322.20
93,816.59,493.00,10834.02
94,816.66,494.00,10356.21
95,816.73,495.00,9721.07
96,816.79,496.00,9169.31
97,816.86,497.00,8763.89
98,816.93,498.00,8230.09
99,816.99,499.00,7647.86
100,817.06,500.00,7091.08
101,817.13,501.00,6570.98
102,817.19,502.00,5991.43
103,817.26,503.00,5489.15
104,817.33,504.00,4949.43
105,817.39,505.00,4602.82
106,817.46,506.00,4146.53
107,817.53,507.00,3898.84
108,817.59,508.00,3415.77
109,817.66,509.00,3279.59
110,817.73,510.00,3033.00
111,817.80,511.00,2859.78
112,817.86,512.00,2688.49
113,817.93,513.00,2510.69
114,818.00,514.00,2254.08
115,818.06,515.00,2183.67
116,818.13,516.00,2038.32
117,818.20,517.00,1996.06
118,818.26,518.00,1856.56
119,818.33,519.00,1731.82
120,818.40,520.00,1689.63
121,818.46,521.00,1573.61
122,818.53,522.00,1533.37
123,818.60,523.00,1465.88
124,818.67,524.00,1490.41
125,818.73,525.00,1478.97
126,818.80,526.00,1477.04
127,818.87,527.00,1478.46
128,818.93,528.00,1522.23
129,819.00,529.00,1484.66
130,819.07,530.00,1571.96
131,819.14,531.00,1569.74
132,819.20,532.00,1687.37
133,819.27,533.00,1717.10
134,819.34,534.00,1810.85
135,819.40,535.00,1806.87
136,819.47,536.00,1999.70
137,819.54,537.00,2000.08
138,819.60,538.00,2164.63
139,819.67,539.00,2205.40
140,819.74,540.00,2448.30
141,819.81,541.00,2507.53
142,819.87,542.00,2657.61
143,819.94,543.00,2844.33
144,820.01,544.00,2929.06
145,820.08,545.00,3121.69
146,820.14,546.00,3260.36
147,820.21,547.00,3437.00
148,820.28,548.00,3495.68
149,820.34,549.00,3485.80
150,820.41,550.00,3437.36
151,820.48,551.00,3333.80
152,820.55,552.00,3152.99
153,820.61,553.00,3016.76
154,820.68,554.00,2736.98
155,820.75,555.00,2688.48
156,820.82,556.00,2399.64
157,820.88,557.00,2271.13
158,820.95,558.00,2059.61
159,821.02,559.00,1904.38
160,821.09,560.00,1635.93
161,821.15,561.00,1636.61
162,821.22,562.00,1443.09
163,821.29,563.00,1370.82
164,821.36,564.00,1266.78
165,821.42,565.00,1184.81
166,821.49,566.00,1142.97
167,821.56,567.00,1098.43
168,821.63,568.00,1069.98
169,821.69,569.00,994.45
170,821.76,570.00,933.45
171,821.83,571.00,779.42
172,821.90,572.00,782.21
173,821.96,573.00,621.06
174,822.03,574.00,545.75
175,822.10,575.00,431.54
176,822.17,576.00,341.44
177,822.23,577.00,283.46
178,822.30,578.00,240.81
179,822.37,579.00,195.63
180,822.44,580.00,168.63
181,822.50,581.00,129.55
182,822.57,582.00,122.25
183,822.64,583.00,96.87
184,822.71,584.00,98.80
185,822.77,585.00,65.89
186,822.84,586.00,78.17
187,822.91,587.00,86.01
188,822.98,588.00,84.51
189,823.05,589.00,72.54
190,823.11,590.00,94.07
191,823.18,591.00,98.24
192,823.25,592.00,111.38
193,823.32,593.00,98.78
194,823.38,594.00,97.12
195,823.45,595.00,130.66
196,823.52,596.00,109.31
197,823.59,597.00,125.27
198,823.66,598.00,111.76
199,823.72,599.00,114.53
200,823.79,600.00,131.06
201,823.86,601.00,116.36
202,823.93,602.00,123.45
203,823.99,603.00,124.11
204,824.06,604.00,118.38
205,824.13,605.00,93.49
206,824.20,606.00,92.19
207,824.27,607.00,99.15
208,824.33,608.00,103.99
209,824.40,609.00,74.25
210,824.47,610.00,65.78
211,824.54,611.00,90.70
212,824.61,612.00,63.20
213,824.67,613.00,68.20
214,824.74,614.00,79.92
215,824.81,615.00,51.78
216,824.88,616.00,90.60
217,824.95,617.00,87.92
218,825.01,618.00,109.52
219,825.08,619.00,112.14
220,825.15,620.00,171.13
221,825.22,621.00,172.43
222,825.29,622.00,210.10
223,825.35,623.00,253.66
224,825.42,624.00,261.51
225,825.49,625.00,301.96
226,825.56,626.00,316.94
227,825.63,627.00,343.50
228,825.70,628.00,379.99
229,825.76,629.00,375.01
230,825.83,630.00,413.54
231,825.90,631.00,426.85
232,825.97,632.00,505.26
233,826.04,633.00,537.29
234,826.10,634.00,606.74
235,826.17,635.00,681.56
236,826.24,636.00,771.35
237,826.31,637.00,861.93
238,826.38,638.00,932.12
239,826.45,639.00,1031.46
240,826.51,640.00,1078.80
241,826.58,641.00,1213.61
242,826.65,642.00,1340.45
243,826.72,643.00,1421.49
244,826.79,644.00,1633.26
245,826.86,645.00,1786.58
246,826.92,646.00,1846.42
247,826.99,647.00,2033.39
248,827.06,648.00,2124.91
249,827.13,649.00,2178.04
250,827.20,650.00,2279.88
251,827.27,651.00,2417.38
252,827.34,652.00,2432.96
253,827.40,653.00,2514.36
254,827.47,654.00,2583.21
255,827.54,655.00,2569.48
256,827.61,656.00,2675.56
257,827.68,657.00,2781.07
258,827.75,658.00,2862.59
259,827.81,659.00,2921.05
260,827.88,660.00,3114.30
261,827.95,661.00,3194.29
262,828.02,662.00,3388.56
263,828.09,663.00,3623.32
264,828.16,664.00,3802.83
265,828.23,665.00,4038.22
266,828.29,666.00,4224.21
267,828.36,667.00,4515.14
268,828.43,668.00,4716.91
269,828.50,669.00,4918.07
270,828.57,670.00,5105.16
271,828.64,671.00,5342.93
272,828.71,672.00,5507.54
273,828.78,673.00,5596.96
274,828.84,674.00,5706.51
275,828.91,675.00,5665.42
276,828.98,676.00,5515.25
277,829.05,677.00,5497.91
278,829.12,678.00,5241.24
279,829.19,679.00,4953.07
280,829.26,680.00,4659.65
281,829.32,681.00,4326.18
282,829.39,682.00,3945.15
283,829.46,683.00,3645.22
284,829.53,684.00,3120.57
285,829.60,685.00,2828.12
286,829.67,686.00,2447.55
287,829.74,687.00,2157.44
288,829.81,688.00,1871.34
289,829.88,689.00,1653.95
290,829.94,690.00,1368.50
291,830.01,691.00,1194.25
292,830.08,692.00,1104.41
293,830.15,693.00,924.39
294,830.22,694.00,854.28
295,830.29,695.00,774.76
296,830.36,696.00,738.67
297,830.43,697.00,666.47
298,830.50,698.00,673.37
299,830.56,699.00,629.49
300,830.63,700.00,600.60
301,830.70,701.00,597.67
302,830.77,702.00,551.55
303,830.84,703.00,521.22
304,830.91,704.00,526.84
305,830.98,705.00,494.14
306,831.05,706.00,460.49
307,831.12,707.00,433.24
308,831.19,708.00,390.64
309,831.26,709.00,429.29
310,831.32,710.00,368.73
311,831.39,711.00,355.88
312,831.46,712.00,307.91
313,831.53,713.00,334.83
314,831.60,714.00,236.89
315,831.67,715.00,214.62
316,831.74,716.00,203.05
317,831.81,717.00,211.13
318,831.88,718.00,182.52
319,831.95,719.00,176.11
320,832.02,720.00,190.29
321,832.09,721.00,176.17
322,832.15,722.00,136.86
323,832.22,723.00,160.09
324,832.29,724.00,124.99
325,832.36,725.00,142.83
326,832.43,726.00,110.42
327,832.50,727.00,119.69
328,832.57,728.00,92.39
329,832.64,729.00,120.43
330,832.71,730.00,94.37
331,832.78,731.00,88.92
332,832.85,732.00,89.47
333,832.92,733.00,104.32
334,832.99,734.00,77.91
335,833.06,735.00,127.99
336,833.13,736.00,101.24
337,833.19,737.00,116.45
338,833.26,738.00,111.77
339,833.33,739.00,112.55
340,833.40,740.00,102.78
341,833.47,741.00,85.02
342,833.54,742.00,69.10
343,833.61,743.00,48.82
344,833.68,744.00,44.06
345,833.75,745.00,56.03
346,833.82,746.00,64.85
347,833.89,747.00,40.72
348,833.96,748.00,44.52
349,834.03,749.00,51.27
350,834.10,750.00,32.45
351,834.17,751.00,29.87
352,834.24,752.00,27.04
353,834.31,753.00,22.27
354,834.38,754.00,24.36
355,834.45,755.00,19.37
356,834.52,756.00,24.46
357,834.59,757.00,18.09
358,834.65,758.00,21.88
359,834.72,759.00,22.42
360,834.79,760.00,43.71
361,834.86,761.00,49.62
362,834.93,762.00,77.30
363,835.00,763.00,104.56
364,835.07,764.00,125.31
365,835.14,765.00,188.27
366,835.21,766.00,242.19
367,835.28,767.00,302.55
368,835.35,768.00,424.84
369,835.42,769.00,513.63
370,835.49,770.00,606.07
371,835.56,771.00,603.81
372,835.63,772.00,812.39
373,835.70,773.00,830.03
374,835.77,774.00,879.88
375,835.84,775.00,944.51
376,835.91,776.00,1016.90
377,835.98,777.00,921.54
378,836.05,778.00,946.23
379,836.12,779.00,929.96
380,836.19,780.00,943.15
381,836.26,781.00,879.85
382,836.33,782.00,865.23
383,836.40,783.00,825.74
384,836.47,784.00,819.79
385,836.54,785.00,814.11
386,836.61,786.00,818.18
387,836.68,787.00,823.81
388,836.75,788.00,844.97
389,836.82,789.00,879.16
390,836.89,790.00,922.29
391,836.96,791.00,955.59
392,837.03,792.00,933.19
393,837.10,793.00,990.52
394,837.17,794.00,1008.89
395,837.24,795.00,1017.17
396,837.31,796.00,1088.43
397,837.38,797.00,1198.48
398,837.45,798.00,1353.48
399,837.52,799.00,1536.60
400,837.59,800.00,1726.89
401,837.66,801.00,1933.43
402,837.73,802.00,2213.69
403,837.80,803.00,2565.88
404,837.87,804.00,2886.39
405,837.94,805.00,3449.18
406,838.01,806.00,4057.02
407,838.08,807.00,4899.69
408,838.15,808.00,5646.02
409,838.22,809.00,6457.79
410,838.29,810.00,7475.62
411,838.36,811.00,8710.49
412,838.43,812.00,9784.48
413,838.50,813.00,10828.97
414,838.57,814.00,11841.79
415,838.64,815.00,12724.31
416,838.72,816.00,13405.13
417,838.79,817.00,13920.93
418,838.86,818.00,14096.44
419,838.93,819.00,14165.76
420,839.00,820.00,14134.76
421,839.07,821.00,13710.64
422,839.14,822.00,13324.12
423,839.21,823.00,12730.05
424,839.28,824.00,12277.16
425,839.35,825.00,11834.46
426,839.42,826.00,11206.95
427,839.49,827.00,10871.77
428,839.56,828.00,10587.64
429,839.63,829.00,10418.71
430,839.70,830.00,10260.14
431,839.77,831.00,10444.65
432,839.84,832.00,10581.69
433,839.91,833.00,11021.87
434,839.98,834.00,11509.48
435,840.05,835.00,12277.36
436,840.12,836.00,12939.78
437,840.19,837.00,13967.46
438,840.27,838.00,15078.39
439,840.34,839.00,16269.60
440,840.41,840.00,17554.26
441,840.48,841.00,18947.88
442,840.55,842.00,20190.90
443,840.62,843.00,21684.22
444,840.69,844.00,22581.24
445,840.76,845.00,23843.77
446,840.83,846.00,24508.58
447,840.90,847.00,25360.20
448,840.97,848.00,25551.54
449,841.04,849.00,25700.77
450,841.11,850.00,25479.92
451,841.18,851.00,25289.73
452,841.26,852.00,24814.55
453,841.33,853.00,24250.58
454,841.40,854.00,23574.39
455,841.47,855.00,22822.15
456,841.54,856.00,22317.39
457,841.61,857.00,21528.42
458,841.68,858.00,20986.47
459,841.75,859.00,20381.44
460,841.82,860.00,19720.90
461,841.89,861.00,19247.61
462,841.96,862.00,18585.51
463,842.03,863.00,18170.25
464,842.11,864.00,17528.24
465,842.18,865.00,16915.90
466,842.25,866.00,16189.44
467,842.32,867.00,15502.37
468,842.39,868.00,14767.45
469,842.46,869.00,13879.39
470,842.53,870.00,12879.46
471,842.60,871.00,11934.06
472,842.67,872.00,10803.49
473,842.74,873.00,9779.99
474,842.82,874.00,8785.00
475,842.89,875.00,7641.91
476,842.96,876.00,6576.70
477,843.03,877.00,5851.38
478,843.10,878.00,4964.81
479,843.17,879.00,4218.76
480,843.24,880.00,3648.07
481,843.31,881.00,3084.84
482,843.38,882.00,2552.43
483,843.45,883.00,2278.79
484,843.53,884.00,2031.66
485,843.60,885.00,1806.54
486,843.67,886.00,1615.94
487,843.74,887.00,1534.07
488,843.81,888.00,1362.86
489,843.88,889.00,1365.38
490,843.95,890.00,1387.60
491,844.02,891.00,1463.26
492,844.10,892.00,1534.82
493,844.17,893.00,1693.94
494,844.24,894.00,1807.22
495,844.31,895.00,1981.90
496,844.38,896.00,2200.52
497,844.45,897.00,2500.79
498,844.52,898.00,2845.61
499,844.59,899.00,3140.49
500,844.67,900.00,3566.40
501,844.74,901.00,3857.60
502,844.81,902.00,4298.58
503,844.88,903.00,4676.46
504,844.95,904.00,5171.46
505,845.02,905.00,5643.04
506,845.09,906.00,6070.73
507,845.17,907.00,6735.70
508,845.24,908.00,7216.65
509,845.31,909.00,7628.64
510,845.38,910.00,8099.71
511,845.45,911.00,8650.02
512,845.52,912.00,8994.94
513,845.59,913.00,9309.96
514,845.67,914.00,9586.36
515,845.74,915.00,9729.48
516,845.81,916.00,10047.47
517,845.88,917.00,10177.10
518,845.95,918.00,10366.11
519,846.02,919.00,10452.63
520,846.10,920.00,10643.47
521,846.17,921.00,10633.52
522,846.24,922.00,10694.33
523,846.31,923.00,10693.28
524,846.38,924.00,10733.92
525,846.45,925.00,10676.71
526,846.53,926.00,10461.82
527,846.60,927.00,10260.66
528,846.67,928.00,9887.51
529,846.74,929.00,9501.99
530,846.81,930.00,8864.02
531,846.88,931.00,8310.25
532,846.96,932.00,7586.78
533,847.03,933.00,6706.11
534,847.10,934.00,5820.71
535,847.17,935.00,5037.96
536,847.24,936.00,4158.37
537,847.31,937.00,3310.39
538,847.39,938.00,2542.47
539,847.46,939.00,1953.58
540,847.53,940.00,1438.06
541,847.60,941.00,1082.33
542,847.67,942.00,722.04
543,847.75,943.00,529.61
544,847.82,944.00,359.24
545,847.89,945.00,249.46
546,847.96,946.00,187.16
547,848.03,947.00,124.94
548,848.10,948.00,89.87
549,848.18,949.00,56.03
550,848.25,950.00,46.67
551,848.32,951.00,33.45
552,848.39,952.00,21.80
553,848.46,953.00,20.87
554,848.54,954.00,20.13
555,848.61,955.00,20.83
556,848.68,956.00,25.94
557,848.75,957.00,28.32
558,848.82,958.00,39.14
559,848.90,959.00,49.31
560,848.97,960.00,64.48
561,849.04,961.00,95.66
562,849.11,962.00,128.76
563,849.18,963.00,187.35
564,849.26,964.00,299.11
565,849.33,965.00,406.59
566,849.40,966.00,643.91
567,849.47,967.00,950.24
568,849.55,968.00,1315.34
569,849.62,969.00,1779.11
570,849.69,970.00,2520.09
571,849.76,971.00,3105.87
572,849.83,972.00,3792.74
573,849.91,973.00,4393.47
574,849.98,974.00,4977.46
575,850.05,975.00,5310.04
576,850.12,976.00,5344.29
577,850.20,977.00,5140.15
578,850.27,978.00,4684.70
579,850.34,979.00,4220.73
580,850.41,980.00,3728.74
581,850.48,981.00,3098.02
582,850.56,982.00,2537.38
583,850.63,983.00,2135.21
584,850.70,984.00,1611.88
585,850.77,985.00,1374.49
586,850.85,986.00,997.66
587,850.92,987.00,784.38
588,850.99,988.00,703.20
589,851.06,989.00,536.69
590,851.14,990.00,441.40
591,851.21,991.00,420.76
592,851.28,992.00,342.41
593,851.35,993.00,277.16
594,851.43,994.00,296.90
595,851.50,995.00,256.90
596,851.57,996.00,231.98
597,851.64,997.00,226.60
598,851.72,998.00,206.34
599,851.79,999.00,211.59
600,851.86,1000.00,221.48
601,851.93,1001.00,184.93
602,852.01,1002.00,236.20
603,852.08,1003.00,232.13
604,852.15,1004.00,287.96
605,852.22,1005.00,298.31
606,852.30,1006.00,373.24
607,852.37,1007.00,386.91
608,852.44,1008.00,449.15
609,852.51,1009.00,501.58
610,852.59,1010.00,612.46
611,852.66,1011.00,662.85
612,852.73,1012.00,871.78
613,852.81,1013.00,1006.28
614,852.88,1014.00,1193.33
615,852.95,1015.00,1398.60
616,853.02,1016.00,1650.77
617,853.10,1017.00,1960.79
618,853.17,1018.00,2353.57
619,853.24,1019.00,2791.53
620,853.32,1020.00,3267.21
621,853.39,1021.00,3780.06
622,853.46,1022.00,4406.91
623,853.53,1023.00,5120.13
624,853.61,1024.00,5544.19
625,853.68,1025.00,6260.27
626,853.75,1026.00,6828.58
627,853.83,1027.00,7483.24
628,853.90,1028.00,8085.17
629,853.97,1029.00,8684.68
630,854.04,1030.00,9113.30
631,854.12,1031.00,9922.43
632,854.19,1032.00,10487.23
633,854.26,1033.00,11262.47
634,854.34,1034.00,11823.57
635,854.41,1035.00,12544.87
636,854.48,1036.00,13383.91
637,854.55,1037.00,14161.49
638,854.63,1038.00,15080.84
639,854.70,1039.00,15953.36
640,854.77,1040.00,16827.69
641,854.85,1041.00,17519.14
642,854.92,1042.00,18395.43
643,854.99,1043.00,19003.11
644,855.07,1044.00,19621.36
645,855.14,1045.00,20219.99
646,855.21,1046.00,20779.18
647,855.29,1047.00,21320.36
648,855.36,1048.00,21527.69
649,855.43,1049.00,22056.75
650,855.51,1050.00,22397.00
651,855.58,1051.00,22816.94
652,855.65,1052.00,23037.11
653,855.72,1053.00,23391.92
654,855.80,1054.00,23707.86
655,855.87,1055.00,24075.31
656,855.94,1056.00,24347.48
657,856.02,1057.00,24559.99
658,856.09,1058.00,24591.06
659,856.16,1059.00,24608.38
660,856.24,1060.00,24472.11
661,856.31,1061.00,24294.92
662,856.38,1062.00,24183.97
663,856.46,1063.00,23647.67
664,856.53,1064.00,23170.49
665,856.60,1065.00,22681.45
666,856.68,1066.00,22298.10
667,856.75,1067.00,21546.43
668,856.82,1068.00,21078.77
669,856.90,1069.00,20460.53
670,856.97,1070.00,20105.20
671,857.04,1071.00,19457.21
672,857.12,1072.00,19028.58
673,857.19,1073.00,18404.57
674,857.27,1074.00,18348.46
675,857.34,1075.00,17798.90
676,857.41,1076.00,17668.66
677,857.49,1077.00,17198.48
678,857.56,1078.00,17300.05
679,857.63,1079.00,17078.64
680,857.71,1080.00,16959.89
681,857.78,1081.00,16720.83
682,857.85,1082.00,16878.19
683,857.93,1083.00,16748.72
684,858.00,1084.00,16848.87
685,858.07,1085.00,16729.84
686,858.15,1086.00,16668.54
687,858.22,1087.00,16688.33
688,858.30,1088.00,16516.33
689,858.37,1089.00,16208.00
690,858.44,1090.00,16188.92
691,858.52,1091.00,15914.41
692,858.59,1092.00,15717.16
693,858.66,1093.00,15229.99
694,858.74,1094.00,15076.40
695,858.81,1095.00,14833.25
696,858.89,1096.00,14729.38
697,858.96,1097.00,14356.54
698,859.03,1098.00,14211.44
699,859.11,1099.00,14137.06
700,859.18,1100.00,13900.23
701,859.25,1101.00,13697.29
702,859.33,1102.00,13757.24
703,859.40,1103.00,13813.84
704,859.48,1104.00,14052.62
705,859.55,1105.00,13954.84
706,859.62,1106.00,14362.53
707,859.70,1107.00,14526.94
708,859.77,1108.00,14914.75
709,859.85,1109.00,15124.40
710,859.92,1110.00,15425.23
711,859.99,1111.00,15615.67
712,860.07,1112.00,15892.97
713,860.14,1113.00,15881.24
714,860.22,1114.00,15953.58
715,860.29,1115.00,15747.64
716,860.36,1116.00,15392.63
717,860.44,1117.00,14966.02
718,860.51,1118.00,14442.84
719,860.59,1119.00,13892.41
720,860.66,1120.00,12920.04
721,860.73,1121.00,12121.89
722,860.81,1122.00,11040.96
723,860.88,1123.00,10154.05
724,860.96,1124.00,9313.97
725,861.03,1125.00,8290.58
726,861.10,1126.00,7368.15
727,861.18,1127.00,6643.47
728,861.25,1128.00,5815.92
729,861.33,1129.00,5024.67
730,861.40,1130.00,4380.92
731,861.47,1131.00,3797.26
732,861.55,1132.00,3185.29
733,861.62,1133.00,2671.74
734,861.70,1134.00,2316.69
735,861.77,1135.00,1943.99
736,861.85,1136.00,1519.12
737,861.92,1137.00,1306.77
738,861.99,1138.00,971.95
739,862.07,1139.00,850.74
740,862.14,1140.00,655.39
741,862.22,1141.00,502.86
742,862.29,1142.00,445.80
743,862.37,1143.00,349.84
744,862.44,1144.00,244.72
745,862.52,1145.00,213.49
746,862.59,1146.00,180.11
747,862.66,1147.00,153.29
748,862.74,1148.00,116.24
749,862.81,1149.00,104.42
750,862.89,1150.00,93.06
751,862.96,1151.00,84.26
752,863.04,1152.00,75.21
753,863.11,1153.00,49.29
754,863.19,1154.00,47.82
755,863.26,1155.00,30.78
756,863.33,1156.00,29.25
757,863.41,1157.00,14.67
758,863.48,1158.00,7.55
759,863.56,1159.00,3.50
760,863.63,1160.00,3.47
761,863.71,1161.00,1.72
762,863.78,1162.00,0.45
763,863.86,1163.00,0.28
764,863.93,1164.00,0.00
765,864.01,1165.00,0.01
766,864.08,1166.00,0.07
767,864.15,1167.00,0.00
768,864.23,1168.00,0.87
769,864.30,1169.00,0.47
770,864.38,1170.00,2.02
771,864.45,1171.00,3.37
772,864.53,1172.00,6.56
773,864.60,1173.00,9.10
774,864.68,1174.00,18.97
775,864.75,1175.00,21.22
776,864.83,1176.00,56.58
777,864.90,1177.00,61.71
778,864.98,1178.00,122.51
779,865.05,1179.00,168.09
780,865.13,1180.00,235.69
781,865.20,1181.00,261.44
782,865.28,1182.00,334.10
783,865.35,1183.00,388.71
784,865.43,1184.00,457.28
785,865.50,1185.00,575.93
786,865.58,1186.00,695.10
787,865.65,1187.00,789.27
788,865.73,1188.00,941.67
789,865.80,1189.00,1027.63
790,865.88,1190.00,1184.94
791,865.95,1191.00,1256.27
792,866.03,1192.00,1451.99
793,866.10,1193.00,1712.01
794,866.18,1194.00,1803.69
795,866.25,1195.00,2171.17
796,866.33,1196.00,2301.24
797,866.40,1197.00,2490.37
798,866.48,1198.00,2697.70
799,866.55,1199.00,2762.30
800,866.63,1200.00,2983.59
801,866.70,1201.00,3100.20
802,866.78,1202.00,3232.19
803,866.85,1203.00,3384.11
804,866.93,1204.00,3568.27
805,867.00,1205.00,3669.39
806,867.08,1206.00,3912.05
807,867.15,1207.00,4050.29
808,867.23,1208.00,4132.52
809,867.30,1209.00,4348.69
810,867.38,1210.00,4399.00
811,867.45,1211.00,4685.54
812,867.53,1212.00,4801.64
813,867.60,1213.00,4915.63
814,867.68,1214.00,5052.95
815,867.75,1215.00,5283.21
816,867.83,1216.00,5325.62
817,867.90,1217.00,5477.35
818,867.98,1218.00,5595.37
819,868.06,1219.00,5625.04
820,868.13,1220.00,5689.57
821,868.21,1221.00,5691.38
822,868.28,1222.00,5799.25
823,868.36,1223.00,5723.54
824,868.43,1224.00,5749.67
825,868.51,1225.00,5785.66
826,868.58,1226.00,5817.70
827,868.66,1227.00,5796.68
828,868.73,1228.00,5802.21
829,868.81,1229.00,5775.97
830,868.89,1230.00,5797.11
831,868.96,1231.00,5932.29
832,869.04,1232.00,5937.68
833,869.11,1233.00,6183.47
834,869.19,1234.00,6244.98
835,869.26,1235.00,6519.74
836,869.34,1236.00,6753.36
837,869.41,1237.00,6983.61
838,869.49,1238.00,7253.10
839,869.57,1239.00,7496.09
840,869.64,1240.00,7764.61
841,869.72,1241.00,8283.68
842,869.79,1242.00,8451.52
843,869.87,1243.00,8989.90
844,869.94,1244.00,9225.88
845,870.02,1245.00,9510.73
846,870.09,1246.00,9791.01
847,870.17,1247.00,9840.90
848,870.25,1248.00,10021.36
849,870.32,1249.00,10075.61
850,870.40,1250.00,10179.32
851,870.47,1251.00,10204.25
852,870.55,1252.00,10163.14
853,870.63,1253.00,10094.00
854,870.70,1254.00,10103.44
855,870.78,1255.00,9947.43
856,870.85,1256.00,9957.76
857,870.93,1257.00,9808.57
858,871.00,1258.00,9750.77
859,871.08,1259.00,9800.80
860,871.16,1260.00,9656.47
861,871.23,1261.00,9559.54
862,871.31,1262.00,9606.72
863,871.38,1263.00,9538.70
864,871.46,1264.00,9585.58
865,871.54,1265.00,9653.60
866,871.61,1266.00,9680.13
867,871.69,1267.00,9562.22
868,871.76,1268.00,9659.73
869,871.84,1269.00,9557.27
870,871.92,1270.00,9583.67
871,871.99,1271.00,9466.77
872,872.07,1272.00,9576.03
873,872.14,1273.00,9550.35
874,872.22,1274.00,9565.16
875,872.30,1275.00,9443.57
876,872.37,1276.00,9295.72
877,872.45,1277.00,9148.85
878,872.52,1278.00,9046.47
879,872.60,1279.00,8614.51
880,872.68,1280.00,8392.62
881,872.75,1281.00,8253.70
882,872.83,1282.00,8200.61
883,872.91,1283.00,7862.90
884,872.98,1284.00,7778.90
885,873.06,1285.00,7449.08
886,873.13,1286.00,7322.02
887,873.21,1287.00,7179.19
888,873.29,1288.00,7151.35
889,873.36,1289.00,7046.67
890,873.44,1290.00,7238.28
891,873.52,1291.00,7140.81
892,873.59,1292.00,7107.00
893,873.67,1293.00,6983.30
894,873.74,1294.00,7071.10
895,873.82,1295.00,7043.13
896,873.90,1296.00,6964.42
897,873.97,1297.00,7030.51
898,874.05,1298.00,7206.21
899,874.13,1299.00,7243.08
900,874.20,1300.00,7365.42
901,874.28,1301.00,7420.74
902,874.36,1302.00,7550.65
903,874.43,1303.00,7600.98
904,874.51,1304.00,7550.59
905,874.58,1305.00,7634.58
906,874.66,1306.00,7685.92
907,874.74,1307.00,7835.12
908,874.81,1308.00,7683.85
909,874.89,1309.00,7689.49
910,874.97,1310.00,7632.14
911,875.04,1311.00,7594.39
912,875.12,1312.00,7421.11
913,875.20,1313.00,7424.04
914,875.27,1314.00,7529.47
915,875.35,1315.00,7419.21
916,875.43,1316.00,7553.54
917,875.50,1317.00,7305.90
918,875.58,1318.00,7388.83
919,875.66,1319.00,7260.56
920,875.73,1320.00,7330.37
921,875.81,1321.00,7302.45
922,875.89,1322.00,7438.41
923,875.96,1323.00,7315.35
924,876.04,1324.00,7095.36
925,876.12,1325.00,6918.99
926,876.19,1326.00,6912.68
927,876.27,1327.00,6831.07
928,876.35,1328.00,6490.31
929,876.42,1329.00,6469.17
930,876.50,1330.00,6242.91
931,876.58,1331.00,6307.76
932,876.65,1332.00,6236.47
933,876.73,1333.00,6077.41
934,876.81,1334.00,6101.57
935,876.89,1335.00,6158.77
936,876.96,1336.00,6120.03
937,877.04,1337.00,6234.73
938,877.12,1338.00,6458.63
939,877.19,1339.00,6468.34
940,877.27,1340.00,6366.77
941,877.35,1341.00,6389.40
942,877.42,1342.00,6437.75
943,877.50,1343.00,6577.34
944,877.58,1344.00,6321.28
945,877.65,1345.00,6390.72
946,877.73,1346.00,6237.91
947,877.81,1347.00,6400.79
948,877.89,1348.00,6449.18
949,877.96,1349.00,6202.75
950,878.04,1350.00,6282.33
951,878.12,1351.00,6337.12
952,878.19,1352.00,6181.33
953,878.27,1353.00,6388.75
954,878.35,1354.00,6369.63
955,878.43,1355.00,6395.58
956,878.50,1356.00,6363.51
957,878.58,1357.00,6417.09
958,878.66,1358.00,6568.20
959,878.73,1359.00,6822.04
960,878.81,1360.00,6718.19
961,878.89,1361.00,6867.52
962,878.97,1362.00,6887.72
963,879.04,1363.00,7032.33
964,879.12,1364.00,7101.66
965,879.20,1365.00,7073.46
966,879.28,1366.00,7082.71
967,879.35,1367.00,7174.37
968,879.43,1368.00,6832.59
969,879.51,1369.00,6831.09
970,879.58,1370.00,6742.69
971,879.66,1371.00,6624.66
972,879.74,1372.00,6401.09
973,879.82,1373.00,6368.85
974,879.89,1374.00,6283.12
975,879.97,1375.00,6301.93
976,880.05,1376.00,6156.97
977,880.13,1377.00,6017.11
978,880.20,1378.00,6022.11
979,880.28,1379.00,6006.51
980,880.36,1380.00,6081.13
981,880.44,1381.00,6083.99
982,880.51,1382.00,5896.39
983,880.59,1383.00,5820.16
984,880.67,1384.00,5558.44
985,880.75,1385.00,5493.62
986,880.82,1386.00,5516.77
987,880.90,1387.00,5339.04
988,880.98,1388.00,5015.46
989,881.06,1389.00,5194.65
990,881.13,1390.00,4704.38
991,881.21,1391.00,4676.01
992,881.29,1392.00,4479.55
993,881.37,1393.00,4571.11
994,881.45,1394.00,4614.48
995,881.52,1395.00,4633.04
996,881.60,1396.00,4633.87
997,881.68,1397.00,4750.22
998,881.76,1398.00,4630.30
999,881.83,1399.00,4738.17
1000,881.91,1400.00,4787.46
1001,881.99,1401.00,4840.06
1002,882.07,1402.00,4990.95
1003,882.15,1403.00,5004.04
1004,882.22,1404.00,4932.60
1005,882.30,1405.00,5139.30
1006,882.38,1406.00,5063.87
1007,882.46,1407.00,5088.86
1008,882.53,1408.00,5063.82
1009,882.61,1409.00,5214.95
1010,882.69,1410.00,5112.15
1011,882.77,1411.00,5031.03
1012,882.85,1412.00,5054.58
1013,882.92,1413.00,5073.58
1014,883.00,1414.00,4857.71
1015,883.08,1415.00,4833.14
1016,883.16,1416.00,4670.14
1017,883.24,1417.00,4599.70
1018,883.31,1418.00,4415.32
1019,883.39,1419.00,4160.29
1020,883.47,1420.00,4112.10
1021,883.55,1421.00,4014.31
1022,883.63,1422.00,3908.52
1023,883.70,1423.00,3804.99
1024,883.78,1424.00,3634.85
1025,883.86,1425.00,3729.55
1026,883.94,1426.00,3699.94
1027,884.02,1427.00,3709.96
1028,884.10,1428.00,3608.31
1029,884.17,1429.00,3871.34
1030,884.25,1430.00,3838.16
1031,884.33,1431.00,3875.28
1032,884.41,1432.00,3714.86
1033,884.49,1433.00,3757.42
1034,884.56,1434.00,3839.58
1035,884.64,1435.00,3730.14
1036,884.72,1436.00,3617.67
1037,884.80,1437.00,3693.02
1038,884.88,1438.00,3596.73
1039,884.96,1439.00,3631.92
1040,885.03,1440.00,3598.59
1041,885.11,1441.00,3837.12
1042,885.19,1442.00,3936.57
1043,885.27,1443.00,4112.30
1044,885.35,1444.00,4304.82
1045,885.43,1445.00,4753.08
1046,885.50,1446.00,5140.78
1047,885.58,1447.00,5694.85
1048,885.66,1448.00,6270.06
1049,885.74,1449.00,6870.81
1050,885.82,1450.00,7641.63
1051,885.90,1451.00,8556.70
1052,885.98,1452.00,9424.30
1053,886.05,1453.00,10256.69
1054,886.13,1454.00,11264.89
1055,886.21,1455.00,12297.20
1056,886.29,1456.00,13284.07
1057,886.37,1457.00,14216.52
1058,886.45,1458.00,14943.75
1059,886.52,1459.00,15574.06
1060,886.60,1460.00,16258.16
1061,886.68,1461.00,16733.86
1062,886.76,1462.00,16977.50
1063,886.84,1463.00,17282.85
1064,886.92,1464.00,17469.05
1065,887.00,1465.00,17622.75
1066,887.08,1466.00,17751.55
1067,887.15,1467.00,17754.37
1068,887.23,1468.00,17641.13
1069,887.31,1469.00,17506.75
1070,887.39,1470.00,17488.80
1071,887.47,1471.00,17137.56
1072,887.55,1472.00,16815.40
1073,887.63,1473.00,16285.37
1074,887.71,1474.00,15840.59
1075,887.78,1475.00,15251.38
1076,887.86,1476.00,14296.36
1077,887.94,1477.00,13537.80
1078,888.02,1478.00,12608.69
1079,888.10,1479.00,11586.19
1080,888.18,1480.00,10543.99
1081,888.26,1481.00,9497.30
1082,888.34,1482.00,8490.63
1083,888.42,1483.00,7656.24
1084,888.49,1484.00,6843.12
1085,888.57,1485.00,6040.79
1086,888.65,1486.00,5509.44
1087,888.73,1487.00,4900.70
1088,888.81,1488.00,4400.55
1089,888.89,1489.00,3991.54
1090,888.97,1490.00,3588.91
1091,889.05,1491.00,3321.83
1092,889.13,1492.00,3118.24
1093,889.21,1493.00,2889.52
1094,889.28,1494.00,2615.16
1095,889.36,1495.00,2477.87
1096,889.44,1496.00,2233.19
1097,889.52,1497.00,2197.42
1098,889.60,1498.00,1845.67
1099,889.68,1499.00,1829.38
1100,889.76,1500.00,1683.03
1101,889.84,1501.00,1434.50
1102,889.92,1502.00,1244.89
1103,890.00,1503.00,1101.12
1104,890.08,1504.00,949.42
1105,890.15,1505.00,825.88
1106,890.23,1506.00,738.87
1107,890.31,1507.00,639.61
1108,890.39,1508.00,566.32
1109,890.47,1509.00,473.41
1110,890.55,1510.00,431.09
1111,890.63,1511.00,342.69
1112,890.71,1512.00,323.61
1113,890.79,1513.00,291.51
1114,890.87,1514.00,256.04
1115,890.95,1515.00,231.61
1116,891.03,1516.00,229.33
1117,891.11,1517.00,247.52
1118,891.19,1518.00,231.02
1119,891.27,1519.00,249.23
1120,891.35,1520.00,244.58
1121,891.42,1521.00,251.28
1122,891.50,1522.00,255.97
1123,891.58,1523.00,267.24
1124,891.66,1524.00,238.45
1125,891.74,1525.00,256.40
1126,891.82,1526.00,255.22
1127,891.90,1527.00,233.27
1128,891.98,1528.00,179.78
1129,892.06,1529.00,158.55
1130,892.14,1530.00,143.89
1131,892.22,1531.00,106.43
1132,892.30,1532.00,109.40
1133,892.38,1533.00,117.83
1134,892.46,1534.00,114.93
1135,892.54,1535.00,102.25
1136,892.62,1536.00,128.49
1137,892.70,1537.00,145.62
1138,892.78,1538.00,168.77
1139,892.86,1539.00,188.74
1140,892.94,1540.00,230.64
1141,893.02,1541.00,282.01
1142,893.10,1542.00,344.50
1143,893.18,1543.00,388.08
1144,893.26,1544.00,495.08
1145,893.34,1545.00,495.91
1146,893.42,1546.00,579.49
1147,893.50,1547.00,587.33
1148,893.58,1548.00,613.18
1149,893.66,1549.00,567.68
1150,893.73,1550.00,552.15
1151,893.81,1551.00,548.14
1152,893.89,1552.00,488.81
1153,893.97,1553.00,408.52
1154,894.05,1554.00,353.27
1155,894.13,1555.00,261.97
1156,894.21,1556.00,191.96
1157,894.29,1557.00,148.01
1158,894.37,1558.00,108.59
1159,894.45,1559.00,97.82
1160,894.53,1560.00,72.63
1161,894.61,1561.00,55.39
1162,894.69,1562.00,46.36
1163,894.77,1563.00,43.15
1164,894.85,1564.00,36.85
1165,894.93,1565.00,46.84
1166,895.01,1566.00,38.01
1167,895.09,1567.00,38.78
1168,895.18,1568.00,36.91
1169,895.26,1569.00,45.73
1170,895.34,1570.00,53.72
1171,895.42,1571.00,58.49
1172,895.50,1572.00,49.09
1173,895.58,1573.00,58.78
1174,895.66,1574.00,76.24
1175,895.74,1575.00,59.46
1176,895.82,1576.00,70.96
1177,895.90,1577.00,71.23
1178,895.98,1578.00,66.31
1179,896.06,1579.00,75.75
1180,896.14,1580.00,81.93
1181,896.22,1581.00,76.07
1182,896.30,1582.00,68.18
1183,896.38,1583.00,102.79
1184,896.46,1584.00,101.53
1185,896.54,1585.00,81.24
1186,896.62,1586.00,92.51
1187,896.70,1587.00,99.32
1188,896.78,1588.00,62.36
1189,896.86,1589.00,90.82
1190,896.94,1590.00,73.54
1191,897.02,1591.00,57.19
1192,897.10,1592.00,43.36
1193,897.18,1593.00,37.60
1194,897.26,1594.00,48.45
1195,897.34,1595.00,44.58
1196,897.42,1596.00,29.93
1197,897.50,1597.00,30.85
1198,897.59,1598.00,31.95
1199,897.67,1599.00,41.50
1200,897.75,1600.00,66.75
1201,897.83,1601.00,51.13
1202,897.91,1602.00,62.61
1203,897.99,1603.00,81.11
1204,898.07,1604.00,48.87
1205,898.15,1605.00,92.97
1206,898.23,1606.00,64.55
1207,898.31,1607.00,62.97
1208,898.39,1608.00,65.36
1209,898.47,1609.00,38.43
1210,898.55,1610.00,65.73
1211,898.63,1611.00,72.39
1212,898.71,1612.00,43.55
1213,898.80,1613.00,48.50
1214,898.88,1614.00,54.82
1215,898.96,1615.00,67.90
1216,899.04,1616.00,91.16
1217,899.12,1617.00,88.67
1218,899.20,1618.00,103.94
1219,899.28,1619.00,128.46
1220,899.36,1620.00,100.49
1221,899.44,1621.00,134.38
1222,899.52,1622.00,140.40
1223,899.60,1623.00,211.83
1224,899.69,1624.00,207.30
1225,899.77,1625.00,230.64
1226,899.85,1626.00,214.67
1227,899.93,1627.00,249.12
1228,900.01,1628.00,202.71
1229,900.09,1629.00,172.32
1230,900.17,1630.00,114.21
1231,900.25,1631.00,112.12
1232,900.33,1632.00,71.96
1233,900.41,1633.00,41.68
1234,900.50,1634.00,38.63
1235,900.58,1635.00,37.36
1236,900.66,1636.00,29.18
1237,900.74,1637.00,28.18
1238,900.82,1638.00,28.28
1239,900.90,1639.00,28.41
1240,900.98,1640.00,25.56
1241,901.06,1641.00,36.43
1242,901.14,1642.00,30.87
1243,901.23,1643.00,43.25
1244,901.31,1644.00,65.93
1245,901.39,1645.00,64.97
1246,901.47,1646.00,79.93
1247,901.55,1647.00,90.35
1248,901.63,1648.00,90.22
1249,901.71,1649.00,59.56
1250,901.79,1650.00,71.72
1251,901.88,1651.00,52.34
1252,901.96,1652.00,56.99
1253,902.04,1653.00,77.66
1254,902.12,1654.00,74.75
1255,902.20,1655.00,73.97
1256,902.28,1656.00,79.04
1257,902.36,1657.00,79.24
1258,902.45,1658.00,62.59
1259,902.53,1659.00,58.10
1260,902.61,1660.00,64.49
1261,902.69,1661.00,59.95
1262,902.77,1662.00,70.72
1263,902.85,1663.00,80.65
1264,902.93,1664.00,130.39
1265,903.02,1665.00,92.40
1266,903.10,1666.00,127.06
1267,903.18,1667.00,122.50
1268,903.26,1668.00,81.38
1269,903.34,1669.00,121.53
1270,903.42,1670.00,82.19
1271,903.51,1671.00,104.87
1272,903.59,1672.00,114.70
1273,903.67,1673.00,106.38
1274,903.75,1674.00,106.61
1275,903.83,1675.00,109.88
1276,903.91,1676.00,106.48
1277,904.00,1677.00,104.30
1278,904.08,1678.00,64.09
1279,904.16,1679.00,61.56
1280,904.24,1680.00,55.61
1281,904.32,1681.00,30.76
1282,904.40,1682.00,31.59
1283,904.49,1683.00,30.88
1284,904.57,1684.00,18.10
1285,904.65,1685.00,34.74
1286,904.73,1686.00,23.41
1287,904.81,1687.00,20.40
1288,904.90,1688.00,30.49
1289,904.98,1689.00,21.87
1290,905.06,1690.00,26.35
1291,905.14,1691.00,24.27
1292,905.22,1692.00,23.05
1293,905.31,1693.00,36.92
1294,905.39,1694.00,38.54
1295,905.47,1695.00,43.77
1296,905.55,1696.00,44.50
1297,905.63,1697.00,62.61
1298,905.72,1698.00,57.17
1299,905.80,1699.00,67.38
1300,905.88,1700.00,55.88
1301,905.96,1701.00,92.12
1302,906.04,1702.00,65.01
1303,906.13,1703.00,79.63
1304,906.21,1704.00,68.12
1305,906.29,1705.00,67.84
1306,906.37,1706.00,60.80
1307,906.45,1707.00,59.18
1308,906.54,1708.00,56.84
1309,906.62,1709.00,66.35
1310,906.70,1710.00,37.89
1311,906.78,1711.00,60.35
1312,906.87,1712.00,58.67
1313,906.95,1713.00,82.91
1314,907.03,1714.00,86.83
1315,907.11,1715.00,104.01
1316,907.19,1716.00,118.65
1317,907.28,1717.00,165.72
1318,907.36,1718.00,179.93
1319,907.44,1719.00,241.70
1320,907.52,1720.00,250.94
1321,907.61,1721.00,279.31
1322,907.69,1722.00,278.84
1323,907.77,1723.00,359.76
1324,907.85,1724.00,385.44
1325,907.94,1725.00,420.49
1326,908.02,1726.00,424.22
1327,908.10,1727.00,459.27
1328,908.18,1728.00,397.34
1329,908.27,1729.00,398.36
1330,908.35,1730.00,350.99
1331,908.43,1731.00,367.18
1332,908.51,1732.00,309.02
1333,908.60,1733.00,285.54
1334,908.68,1734.00,200.38
1335,908.76,1735.00,191.43
1336,908.84,1736.00,159.32
1337,908.93,1737.00,146.80
1338,909.01,1738.00,96.75
1339,909.09,1739.00,91.23
1340,909.17,1740.00,60.60
1341,909.26,1741.00,71.10
1342,909.34,1742.00,63.40
1343,909.42,1743.00,56.28
1344,909.50,1744.00,67.65
1345,909.59,1745.00,61.22
1346,909.67,1746.00,48.49
1347,909.75,1747.00,69.42
1348,909.84,1748.00,58.75
1349,909.92,1749.00,44.90
1350,910.00,1750.00,50.23
1351,910.08,1751.00,39.64
1352,910.17,1752.00,47.75
1353,910.25,1753.00,39.39
1354,910.33,1754.00,47.31
1355,910.42,1755.00,53.74
1356,910.50,1756.00,50.44
1357,910.58,1757.00,76.39
1358,910.66,1758.00,72.62
1359,910.75,1759.00,87.00
1360,910.83,1760.00,89.71
1361,910.91,1761.00,85.19
1362,911.00,1762.00,67.51
1363,911.08,1763.00,90.35
1364,911.16,1764.00,79.67
1365,911.24,1765.00,61.17
1366,911.33,1766.00,64.93
1367,911.41,1767.00,39.55
1368,911.49,1768.00,27.46
1369,911.58,1769.00,25.74
1370,911.66,1770.00,16.34
1371,911.74,1771.00,9.50
1372,911.83,1772.00,6.26
1373,911.91,1773.00,8.60
1374,911.99,1774.00,8.64
1375,912.08,1775.00,13.50
1376,912.16,1776.00,13.59
1377,912.24,1777.00,25.02
1378,912.33,1778.00,10.60
1379,912.41,1779.00,20.02
1380,912.49,1780.00,9.42
1381,912.58,1781.00,18.20
1382,912.66,1782.00,27.66
1383,912.74,1783.00,29.61
1384,912.83,1784.00,25.05
1385,912.91,1785.00,24.37
1386,912.99,1786.00,25.66
1387,913.08,1787.00,40.69
1388,913.16,1788.00,44.03
1389,913.24,1789.00,46.05
1390,913.33,1790.00,55.38
1391,913.41,1791.00,70.99
1392,913.49,1792.00,56.96
1393,913.58,1793.00,35.32
1394,913.66,1794.00,27.21
1395,913.74,1795.00,62.62
1396,913.83,1796.00,61.22
1397,913.91,1797.00,43.28
1398,913.99,1798.00,56.15
1399,914.08,1799.00,29.20
1400,914.16,1800.00,16.72
1401,914.24,1801.00,27.85
1402,914.33,1802.00,12.13
1403,914.41,1803.00,25.36
1404,914.49,1804.00,17.64
1405,914.58,1805.00,22.15
1406,914.66,1806.00,19.64
1407,914.75,1807.00,40.34
1408,914.83,1808.00,30.83
1409,914.91,1809.00,59.82
1410,915.00,1810.00,31.82
1411,915.08,1811.00,63.15
1412,915.16,1812.00,27.82
1413,915.25,1813.00,57.30
1414,915.33,1814.00,61.65
1415,915.42,1815.00,41.07
1416,915.50,1816.00,61.24
1417,915.58,1817.00,48.30
1418,915.67,1818.00,53.77
1419,915.75,1819.00,58.78
1420,915.83,1820.00,41.97
1421,915.92,1821.00,46.08
1422,916.00,1822.00,43.51
1423,916.09,1823.00,43.79
1424,916.17,1824.00,43.64
1425,916.25,1825.00,42.70
1426,916.34,1826.00,28.21
1427,916.42,1827.00,54.75
1428,916.51,1828.00,26.45
1429,916.59,1829.00,42.41
1430,916.67,1830.00,44.04
1431,916.76,1831.00,58.30
1432,916.84,1832.00,47.12
1433,916.93,1833.00,48.14
1434,917.01,1834.00,49.50
1435,917.09,1835.00,46.68
1436,917.18,1836.00,51.13
1437,917.26,1837.00,33.16
1438,917.35,1838.00,47.19
1439,917.43,1839.00,44.61
1440,917.52,1840.00,44.96
1441,917.60,1841.00,54.72
1442,917.68,1842.00,44.07
1443,917.77,1843.00,34.92
1444,917.85,1844.00,23.62
1445,917.94,1845.00,22.72
1446,918.02,1846.00,26.04
1447,918.11,1847.00,28.69
1448,918.19,1848.00,28.22
1449,918.27,1849.00,54.16
1450,918.36,1850.00,49.15
1451,918.44,1851.00,53.69
1452,918.53,1852.00,24.93
1453,918.61,1853.00,70.04
1454,918.70,1854.00,47.09
1455,918.78,1855.00,49.18
1456,918.86,1856.00,49.69
1457,918.95,1857.00,53.20
1458,919.03,1858.00,34.84
1459,919.12,1859.00,38.77
1460,919.20,1860.00,22.30
1461,919.29,1861.00,29.14
1462,919.37,1862.00,27.70
1463,919.46,1863.00,28.46
1464,919.54,1864.00,21.38
1465,919.62,1865.00,14.70
1466,919.71,1866.00,21.73
1467,919.79,1867.00,24.33
1468,919.88,1868.00,32.20
1469,919.96,1869.00,28.93
1470,920.05,1870.00,35.84
1471,920.13,1871.00,36.51
1472,920.22,1872.00,36.22
1473,920.30,1873.00,12.98
1474,920.39,1874.00,15.38
1475,920.47,1875.00,29.67
1476,920.56,1876.00,28.37
1477,920.64,1877.00,15.46
1478,920.73,1878.00,25.86
1479,920.81,1879.00,23.23
1480,920.90,1880.00,19.08
1481,920.98,1881.00,22.93
1482,921.06,1882.00,21.23
1483,921.15,1883.00,21.02
1484,921.23,1884.00,39.15
1485,921.32,1885.00,0.49
1486,921.40,1886.00,24.07
1487,921.49,1887.00,0.00
1488,921.57,1888.00,18.07
1489,921.66,1889.00,11.65
1490,921.74,1890.00,0.82
1491,921.83,1891.00,1.14
1492,921.91,1892.00,0.53
1493,922.00,1893.00,0.00
1494,922.08,1894.00,0.00
1495,922.17,1895.00,0.00
1496,922.25,1896.00,0.00
1497,922.34,1897.00,0.58
1498,922.42,1898.00,0.52
1499,922.51,1899.00,2.05
1500,922.59,1900.00,2.91
1501,922.68,1901.00,7.88
1502,922.76,1902.00,13.28
1503,922.85,1903.00,21.00
1504,922.93,1904.00,27.56
1505,923.02,1905.00,26.32
1506,923.11,1906.00,2.54
1507,923.19,1907.00,56.84
1508,923.28,1908.00,57.99
1509,923.36,1909.00,15.18
1510,923.45,1910.00,39.87
1511,923.53,1911.00,19.42
1512,923.62,1912.00,6.30
1513,923.70,1913.00,0.00
1514,923.79,1914.00,13.00
1515,923.87,1915.00,12.96
1516,923.96,1916.00,15.74
1517,924.04,1917.00,4.01
1518,924.13,1918.00,11.56
1519,924.21,1919.00,7.90
1520,924.30,1920.00,17.31
1521,924.39,1921.00,8.71
1522,924.47,1922.00,1.03
1523,924.56,1923.00,19.02
1524,924.64,1924.00,33.11
1525,924.73,1925.00,0.00
1526,924.81,1926.00,12.31
1527,924.90,1927.00,1.65
1528,924.98,1928.00,6.01
1529,925.07,1929.00,0.00
1530,925.16,1930.00,2.41
1531,925.24,1931.00,7.60
1532,925.33,1932.00,12.97
1533,925.41,1933.00,12.44
1534,925.50,1934.00,12.43
1535,925.58,1935.00,14.93
1536,925.67,1936.00,21.59
1537,925.75,1937.00,14.93
1538,925.84,1938.00,1.31
1539,925.93,1939.00,41.54
1540,926.01,1940.00,31.30
1541,926.10,1941.00,3.42
1542,926.18,1942.00,33.15
1543,926.27,1943.00,31.25
1544,926.35,1944.00,25.61
1545,926.44,1945.00,8.83
1546,926.53,1946.00,4.41
1547,926.61,1947.00,3.67
1548,926.70,1948.00,0.00
1549,926.78,1949.00,14.73
1550,926.87,1950.00,25.35
1551,926.96,1951.00,9.35
1552,927.04,1952.00,30.59
1553,927.13,1953.00,16.11
1554,927.21,1954.00,9.58
1555,927.30,1955.00,32.12
1556,927.39,1956.00,45.59
1557,927.47,1957.00,3.43
1558,927.56,1958.00,9.72
1559,927.64,1959.00,14.53
1560,927.73,1960.00,0.00
1561,927.82,1961.00,0.65
1562,927.90,1962.00,5.92
1563,927.99,1963.00,0.93
1564,928.07,1964.00,5.21
1565,928.16,1965.00,0.00
1566,928.25,1966.00,2.43
1567,928.33,1967.00,0.86
1568,928.42,1968.00,1.62
1569,928.51,1969.00,2.91
1570,928.59,1970.00,7.69
1571,928.68,1971.00,26.11
1572,928.76,1972.00,25.65
1573,928.85,1973.00,21.21
1574,928.94,1974.00,16.13
1575,929.02,1975.00,52.97
1576,929.11,1976.00,12.32
1577,929.20,1977.00,15.90
1578,929.28,1978.00,3.72
1579,929.37,1979.00,16.72
1580,929.45,1980.00,20.73
1581,929.54,1981.00,0.00
1582,929.63,1982.00,9.50
1583,929.71,1983.00,14.53
1584,929.80,1984.00,9.25
1585,929.89,1985.00,16.78
1586,929.97,1986.00,37.21
1587,930.06,1987.00,53.51
1588,930.15,1988.00,48.02
1589,930.23,1989.00,42.55
1590,930.32,1990.00,29.16
1591,930.41,1991.00,45.96
1592,930.49,1992.00,29.10
1593,930.58,1993.00,11.13
1594,930.67,1994.00,17.41
1595,930.75,1995.00,30.07
1596,930.84,1996.00,51.98
1597,930.93,1997.00,12.91
1598,931.01,1998.00,38.30
1599,931.10,1999.00,12.41
1600,931.19,2000.00,14.48
1601,931.27,2001.00,18.74
1602,931.36,2002.00,15.43
1603,931.45,2003.00,38.15
1604,931.53,2004.00,14.43
1605,931.62,2005.00,52.03
1606,931.71,2006.00,51.84
1607,931.79,2007.00,41.72
1608,931.88,2008.00,33.20
1609,931.97,2009.00,68.80
1610,932.05,2010.00,33.68
1611,932.14,2011.00,34.95
1612,932.23,2012.00,21.97
1613,932.31,2013.00,15.38
1614,932.40,2014.00,31.73
1615,932.49,2015.00,15.26
1616,932.57,2016.00,19.24
1617,932.66,2017.00,11.03
1618,932.75,2018.00,17.68
1619,932.84,2019.00,5.23
1620,932.92,2020.00,23.63
1621,933.01,2021.00,10.60
1622,933.10,2022.00,21.59
1623,933.18,2023.00,33.37
1624,933.27,2024.00,15.67
1625,933.36,2025.00,4.56
1626,933.45,2026.00,12.77
1627,933.53,2027.00,34.64
1628,933.62,2028.00,43.84
1629,933.71,2029.00,22.86
1630,933.79,2030.00,39.20
1631,933.88,2031.00,9.07
1632,933.97,2032.00,8.59
1633,934.06,2033.00,20.81
1634,934.14,2034.00,15.12
1635,934.23,2035.00,3.36
1636,934.32,2036.00,6.25
1637,934.40,2037.00,9.28
1638,934.49,2038.00,9.69
1639,934.58,2039.00,14.29
1640,934.67,2040.00,4.21
1641,934.75,2041.00,17.43
1642,934.84,2042.00,16.60
1643,934.93,2043.00,10.81
1644,935.02,2044.00,12.23
1645,935.10,2045.00,14.02
1646,935.19,2046.00,2.14
1647,935.28,2047.00,0.00
1648,935.37,2048.00,10.22
1649,935.45,2049.00,7.13
1650,935.54,2050.00,1.43
1651,935.63,2051.00,5.10
1652,935.72,2052.00,0.00
1653,935.80,2053.00,0.27
1654,935.89,2054.00,0.00
1655,935.98,2055.00,1.22
1656,936.07,2056.00,1.45
1657,936.15,2057.00,0.00
1658,936.24,2058.00,0.53
1659,936.33,2059.00,0.10
1660,936.42,2060.00,0.00
1661,936.51,2061.00,2.03
1662,936.59,2062.00,1.72
1663,936.68,2063.00,1.85
1664,936.77,2064.00,13.65
1665,936.86,2065.00,1.04
1666,936.94,2066.00,0.00
1667,937.03,2067.00,3.83
1668,937.12,2068.00,0.00
1669,937.21,2069.00,2.76
1670,937.30,2070.00,0.00
1671,937.38,2071.00,50.10
1672,937.47,2072.00,26.46
1673,937.56,2073.00,17.14
1674,937.65,2074.00,15.50
1675,937.73,2075.00,3.19
1676,937.82,2076.00,29.99
1677,937.91,2077.00,55.41
1678,938.00,2078.00,29.32
1679,938.09,2079.00,0.00
1680,938.17,2080.00,18.08
1681,938.26,2081.00,0.00
1682,938.35,2082.00,0.00
1683,938.44,2083.00,1.50
1684,938.53,2084.00,0.00
1685,938.61,2085.00,0.00
1686,938.70,2086.00,0.00
1687,938.79,2087.00,1.47
1688,938.88,2088.00,2.51
1689,938.97,2089.00,0.00
1690,939.06,2090.00,1.24
1691,939.14,2091.00,0.00
1692,939.23,2092.00,1.39
1693,939.32,2093.00,5.80
1694,939.41,2094.00,0.00
1695,939.50,2095.00,0.00
1696,939.58,2096.00,5.85
1697,939.67,2097.00,0.00
1698,939.76,2098.00,7.88
1699,939.85,2099.00,2.64
1700,939.94,2100.00,6.52
1701,940.03,2101.00,4.95
1702,940.11,2102.00,6.11
1703,940.20,2103.00,21.59
1704,940.29,2104.00,27.61
1705,940.38,2105.00,0.38
1706,940.47,2106.00,13.77
1707,940.56,2107.00,0.00
1708,940.65,2108.00,42.03
1709,940.73,2109.00,28.13
1710,940.82,2110.00,6.56
1711,940.91,2111.00,14.76
1712,941.00,2112.00,27.81
1713,941.09,2113.00,17.33
1714,941.18,2114.00,6.36
1715,941.27,2115.00,7.54
1716,941.35,2116.00,0.00
1717,941.44,2117.00,9.05
1718,941.53,2118.00,8.20
1719,941.62,2119.00,0.00
1720,941.71,2120.00,4.98
1721,941.80,2121.00,4.11
1722,941.89,2122.00,7.76
1723,941.97,2123.00,0.00
1724,942.06,2124.00,10.75
1725,942.15,2125.00,0.50
1726,942.24,2126.00,6.37
1727,942.33,2127.00,0.00
1728,942.42,2128.00,13.81
1729,942.51,2129.00,9.22
1730,942.60,2130.00,16.01
1731,942.68,2131.00,10.98
1732,942.77,2132.00,1.38
1733,942.86,2133.00,9.95
1734,942.95,2134.00,16.96
1735,943.04,2135.00,6.54
1736,943.13,2136.00,14.56
1737,943.22,2137.00,14.72
1738,943.31,2138.00,0.00
1739,943.40,2139.00,0.00
1740,943.49,2140.00,10.93
1741,943.57,2141.00,4.13
1742,943.66,2142.00,3.01
1743,943.75,2143.00,0.00
1744,943.84,2144.00,4.94
1745,943.93,2145.00,2.06
1746,944.02,2146.00,3.17
1747,944.11,2147.00,0.00
1748,944.20,2148.00,0.00
1749,944.29,2149.00,0.57
1750,944.38,2150.00,0.00
1751,944.47,2151.00,0.00
1752,944.55,2152.00,1.97
1753,944.64,2153.00,0.67
1754,944.73,2154.00,0.00
1755,944.82,2155.00,0.00
1756,944.91,2156.00,0.00
1757,945.00,2157.00,3.32
1758,945.09,2158.00,3.12
1759,945.18,2159.00,0.00
1760,945.27,2160.00,10.79
1761,945.36,2161.00,10.51
1762,945.45,2162.00,13.83
1763,945.54,2163.00,0.00
1764,945.63,2164.00,0.00
1765,945.72,2165.00,18.36
1766,945.81,2166.00,3.56
1767,945.89,2167.00,19.77
1768,945.98,2168.00,0.51
1769,946.07,2169.00,7.89
1770,946.16,2170.00,14.31
1771,946.25,2171.00,0.00
1772,946.34,2172.00,11.13
1773,946.43,2173.00,16.31
1774,946.52,2174.00,9.73
1775,946.61,2175.00,4.28
1776,946.70,2176.00,15.97
1777,946.79,2177.00,8.67
1778,946.88,2178.00,8.03
1779,946.97,2179.00,1.82
1780,947.06,2180.00,0.00
1781,947.15,2181.00,4.01
1782,947.24,2182.00,3.86
1783,947.33,2183.00,9.58
1784,947.42,2184.00,7.82
1785,947.51,2185.00,7.04
1786,947.60,2186.00,8.00
1787,947.69,2187.00,0.93
1788,947.78,2188.00,9.04
1789,947.87,2189.00,8.53
1790,947.96,2190.00,5.44
1791,948.05,2191.00,1.53
1792,948.14,2192.00,18.72
1793,948.23,2193.00,16.06
1794,948.32,2194.00,16.23
1795,948.41,2195.00,5.81
1796,948.50,2196.00,0.37
1797,948.59,2197.00,10.79
1798,948.68,2198.00,13.02
1799,948.77,2199.00,36.97
1800,948.86,2200.00,33.70
1801,948.95,2201.00,16.01
1802,949.04,2202.00,22.18
1803,949.13,2203.00,6.52
1804,949.22,2204.00,27.98
1805,949.31,2205.00,18.11
1806,949.40,2206.00,5.76
1807,949.49,2207.00,9.40
1808,949.58,2208.00,16.48
1809,949.67,2209.00,1.51
1810,949.76,2210.00,2.95
1811,949.85,2211.00,8.41
1812,949.94,2212.00,5.99
1813,950.03,2213.00,0.00
1814,950.12,2214.00,0.00
1815,950.21,2215.00,10.75
1816,950.30,2216.00,10.55
1817,950.39,2217.00,1.56
1818,950.48,2218.00,10.91
1819,950.57,2219.00,6.13
1820,950.66,2220.00,26.16
1821,950.75,2221.00,6.55
1822,950.84,2222.00,9.02
1823,950.93,2223.00,0.00
1824,951.02,2224.00,23.72
1825,951.11,2225.00,8.39
1826,951.20,2226.00,13.36
1827,951.29,2227.00,1.73
1828,951.38,2228.00,0.00
1829,951.47,2229.00,6.49
1830,951.57,2230.00,13.19
1831,951.66,2231.00,27.41
1832,951.75,2232.00,40.35
1833,951.84,2233.00,10.63
1834,951.93,2234.00,15.55
1835,952.02,2235.00,8.12
1836,952.11,2236.00,17.57
1837,952.20,2237.00,8.87
1838,952.29,2238.00,10.19
1839,952.38,2239.00,2.23
1840,952.47,2240.00,15.15
1841,952.56,2241.00,5.17
1842,952.65,2242.00,4.94
1843,952.74,2243.00,1.26
1844,952.83,2244.00,0.00
1845,952.93,2245.00,0.00
1846,953.02,2246.00,3.92
1847,953.11,2247.00,9.25
1848,953.20,2248.00,26.52
1849,953.29,2249.00,9.05
1850,953.38,2250.00,22.23
1851,953.47,2251.00,15.54
1852,953.56,2252.00,30.73
1853,953.65,2253.00,20.16
1854,953.74,2254.00,40.42
1855,953.83,2255.00,34.89
1856,953.93,2256.00,83.16
1857,954.02,2257.00,20.24
1858,954.11,2258.00,11.88
1859,954.20,2259.00,13.86
1860,954.29,2260.00,0.00
1861,954.38,2261.00,8.68
1862,954.47,2262.00,4.35
1863,954.56,2263.00,0.00
1864,954.65,2264.00,3.66
1865,954.75,2265.00,0.00
1866,954.84,2266.00,0.07
1867,954.93,2267.00,0.00
1868,955.02,2268.00,0.04
1869,955.11,2269.00,0.00
1870,955.20,2270.00,0.10
1871,955.29,2271.00,0.00
1872,955.38,2272.00,0.10
1873,955.47,2273.00,0.00
1874,955.57,2274.00,0.00
1875,955.66,2275.00,0.02
1876,955.75,2276.00,0.00
1877,955.84,2277.00,0.00
1878,955.93,2278.00,0.00
1879,956.02,2279.00,0.47
1880,956.11,2280.00,1.24
1881,956.21,2281.00,1.91
1882,956.30,2282.00,4.54
1883,956.39,2283.00,5.79
1884,956.48,2284.00,15.03
1885,956.57,2285.00,9.69
1886,956.66,2286.00,38.14
1887,956.75,2287.00,0.00
1888,956.85,2288.00,80.96
1889,956.94,2289.00,30.20
1890,957.03,2290.00,0.00
1891,957.12,2291.00,26.44
1892,957.21,2292.00,0.00
1893,957.30,2293.00,0.00
1894,957.40,2294.00,8.73
1895,957.49,2295.00,0.99
1896,957.58,2296.00,19.09
1897,957.67,2297.00,6.29
1898,957.76,2298.00,4.79
1899,957.85,2299.00,0.00
1900,957.95,2300.00,0.18
1901,958.04,2301.00,0.00
1902,958.13,2302.00,18.34
1903,958.22,2303.00,0.00
1904,958.31,2304.00,21.30
1905,958.41,2305.00,0.00
1906,958.50,2306.00,0.00
1907,958.59,2307.00,0.00
1908,958.68,2308.00,0.00
1909,958.77,2309.00,23.77
1910,958.86,2310.00,12.15
1911,958.96,2311.00,0.00
1912,959.05,2312.00,20.78
1913,959.14,2313.00,0.00
1914,959.23,2314.00,0.00
1915,959.32,2315.00,6.23
1916,959.42,2316.00,22.74
1917,959.51,2317.00,0.00
1918,959.60,2318.00,20.64
1919,959.69,2319.00,4.04
1920,959.79,2320.00,11.75
1921,959.88,2321.00,0.00
1922,959.97,2322.00,0.00
1923,960.06,2323.00,0.00
1924,960.15,2324.00,0.00
1925,960.25,2325.00,0.06
1926,960.34,2326.00,0.06
1927,960.43,2327.00,0.80
1928,960.52,2328.00,0.00
1929,960.61,2329.00,1.06
1930,960.71,2330.00,2.59
1931,960.80,2331.00,2.29
1932,960.89,2332.00,12.39
1933,960.98,2333.00,10.51
1934,961.08,2334.00,19.34
1935,961.17,2335.00,7.73
1936,961.26,2336.00,42.59
1937,961.35,2337.00,4.36
1938,961.45,2338.00,0.00
1939,961.54,2339.00,21.32
1940,961.63,2340.00,11.81
1941,961.72,2341.00,7.75
1942,961.82,2342.00,33.63
1943,961.91,2343.00,12.70
1944,962.00,2344.00,19.00
1945,962.09,2345.00,17.84
1946,962.19,2346.00,24.48
1947,962.28,2347.00,23.63
1948,962.37,2348.00,56.56
1949,962.46,2349.00,48.59
1950,962.56,2350.00,37.95
1951,962.65,2351.00,22.03
1952,962.74,2352.00,26.31
1953,962.83,2353.00,12.90
1954,962.93,2354.00,25.99
1955,963.02,2355.00,0.00
1956,963.11,2356.00,13.79
1957,963.21,2357.00,13.39
1958,963.30,2358.00,10.88
1959,963.39,2359.00,3.20
1960,963.48,2360.00,2.59
1961,963.58,2361.00,5.91
1962,963.67,2362.00,18.69
1963,963.76,2363.00,13.14
1964,963.86,2364.00,19.13
1965,963.95,2365.00,25.61
1966,964.04,2366.00,31.55
1967,964.13,2367.00,15.80
1968,964.23,2368.00,30.82
1969,964.32,2369.00,18.97
1970,964.41,2370.00,45.27
1971,964.51,2371.00,42.20
1972,964.60,2372.00,33.46
1973,964.69,2373.00,34.25
1974,964.79,2374.00,51.38
1975,964.88,2375.00,38.61
1976,964.97,2376.00,27.23
1977,965.06,2377.00,21.11
1978,965.16,2378.00,22.67
1979,965.25,2379.00,18.08
1980,965.34,2380.00,15.34
1981,965.44,2381.00,13.04
1982,965.53,2382.00,7.56
1983,965.62,2383.00,8.41
1984,965.72,2384.00,12.40
1985,965.81,2385.00,5.45
1986,965.90,2386.00,14.92
1987,966.00,2387.00,19.14
1988,966.09,2388.00,26.76
1989,966.18,2389.00,25.62
1990,966.28,2390.00,32.57
1991,966.37,2391.00,42.91
1992,966.46,2392.00,54.53
1993,966.56,2393.00,45.44
1994,966.65,2394.00,54.11
1995,966.74,2395.00,81.97
1996,966.84,2396.00,93.20
1997,966.93,2397.00,89.01
1998,967.02,2398.00,119.28
1999,967.12,2399.00,97.33
2000,967.21,2400.00,123.42
