wavenumber,intensity
405.4,450.1000
406.7,564.0200
407.9,480.2600
409.2,504.7000
410.5,566.4000
411.7,633.8400
413.0,610.1000
414.3,556.9500
415.5,657.6800
416.8,710.9400
418.0,700.8100
419.3,808.3800
420.6,742.6900
421.8,885.9200
423.1,821.6200
424.3,963.4000
425.6,877.5400
426.9,1010.2500
428.1,1010.4700
429.4,998.0000
430.6,974.1500
431.9,1044.3500
433.1,1047.2300
434.4,1139.5600
435.7,1056.9000
436.9,1211.8700
438.2,1157.2000
439.4,1176.6300
440.7,1172.0600
442.0,1185.8500
443.2,1259.6100
444.5,1224.8400
445.7,1208.4200
447.0,1249.3900
448.2,1263.2700
449.5,1207.9800
450.8,1225.7200
452.0,1203.9100
453.3,1275.6900
454.5,1302.2500
455.8,1326.9300
457.0,1342.2200
458.3,1375.0500
459.5,1285.8800
460.8,1239.3800
462.0,1349.1900
463.3,1312.1500
464.6,1322.6300
465.8,1305.0600
467.1,1319.9700
468.3,1290.0500
469.6,1278.2500
470.8,1263.4000
472.1,1331.9100
473.3,1271.7700
474.6,1357.0200
475.8,1236.2200
477.1,1259.4500
478.3,1390.5000
479.6,1375.2900
480.8,1284.6500
482.1,1511.4000
483.3,1538.9000
484.6,1572.5800
485.8,1650.6900
487.1,1669.5300
488.3,1710.5700
489.6,1682.6000
490.8,1767.9800
492.1,1738.8600
493.3,1624.9400
494.6,1691.2700
495.8,1647.0000
497.1,1565.3800
498.3,1402.9400
499.6,1447.3200
500.8,1214.7700
502.0,1149.6900
503.3,1089.6200
504.5,937.9400
505.8,839.6500
507.0,820.9100
508.3,722.2700
509.5,563.4000
510.8,568.1400
512.0,383.4200
513.2,474.1900
514.5,323.9100
515.7,243.1700
517.0,242.8000
518.2,161.0600
519.5,79.4600
520.7,79.0500
522.0,49.3000
523.2,31.1900
524.4,23.2100
525.7,0.0000
526.9,53.5100
528.2,0.0000
529.4,0.0000
530.6,47.3000
531.9,37.9800
533.1,0.0000
534.4,0.0000
535.6,0.0000
536.9,23.1300
538.1,11.7200
539.3,0.0000
540.6,0.0000
541.8,8.6900
543.1,0.0000
544.3,40.5600
545.5,18.5600
546.8,9.7900
548.0,67.5600
549.2,36.7000
550.5,7.1000
551.7,0.0000
553.0,18.9300
554.2,0.0000
555.4,91.4200
556.7,0.0000
557.9,25.3600
559.1,46.8800
560.4,21.3600
561.6,0.0000
562.9,7.2900
564.1,5.6200
565.3,26.2600
566.6,45.7100
567.8,0.0000
569.0,32.0700
570.3,71.3700
571.5,78.6600
572.7,0.0000
574.0,1.7300
575.2,9.4100
576.4,34.1400
577.7,0.0000
578.9,63.1100
580.1,40.8000
581.4,33.2900
582.6,64.7400
583.8,51.9700
585.1,114.0600
586.3,125.4600
587.5,142.7600
588.8,231.2500
590.0,127.9800
591.2,166.4800
592.4,111.5600
593.7,215.2400
594.9,223.1800
596.1,204.7500
597.4,254.9400
598.6,299.2500
599.8,321.2800
601.0,322.8300
602.3,375.8700
603.5,245.8800
604.7,334.0200
606.0,369.5200
607.2,322.7000
608.4,302.7900
609.6,380.8900
610.9,330.7000
612.1,232.2300
613.3,265.4800
614.5,308.6200
615.8,341.2600
617.0,279.7000
618.2,186.2500
619.4,159.1400
620.7,209.3000
621.9,180.5100
623.1,100.1400
624.3,164.8200
625.6,112.9700
626.8,101.1700
628.0,101.5500
629.2,53.3500
630.5,71.1500
631.7,56.0000
632.9,83.0700
634.1,95.1200
635.3,49.4500
636.6,0.0000
637.8,48.1000
639.0,0.0000
640.2,0.0000
641.4,4.9700
642.7,66.2600
643.9,9.5500
645.1,22.9800
646.3,15.7200
647.5,0.0000
648.8,27.5700
650.0,17.3800
651.2,33.0400
652.4,15.4300
653.6,56.3300
654.9,15.8500
656.1,47.5800
657.3,71.8700
658.5,38.3400
659.7,0.0000
660.9,0.0000
662.1,82.8400
663.4,107.6000
664.6,63.2700
665.8,49.2400
667.0,41.5100
668.2,62.3200
669.4,33.5400
670.7,32.7100
671.9,42.7300
673.1,39.0800
674.3,26.3500
675.5,40.9500
676.7,56.6900
677.9,76.9800
679.1,66.5900
680.4,51.1100
681.6,94.1300
682.8,53.7200
684.0,1.4500
685.2,34.9100
686.4,99.5300
687.6,97.2700
688.9,75.2100
690.1,78.6500
691.3,82.1000
692.5,65.7800
693.7,107.7100
694.9,48.4700
696.1,47.4700
697.3,69.0700
698.5,29.7200
699.7,16.3600
700.9,0.0000
702.1,73.0200
703.4,60.7000
704.6,0.0000
705.8,16.5100
707.0,4.3400
708.2,60.8500
709.4,0.0000
710.6,40.0100
711.8,36.3800
713.0,0.0000
714.2,86.7700
715.4,84.6100
716.6,56.0900
717.8,0.1200
719.0,36.1600
720.2,103.0200
721.4,88.0400
722.6,72.5200
723.8,11.6800
725.0,77.3800
726.2,64.1600
727.5,48.1600
728.7,0.0000
729.9,49.5600
731.1,65.2400
732.3,41.8400
733.5,68.1500
734.7,84.9700
735.9,43.2000
737.1,111.3500
738.3,50.1200
739.5,35.7500
740.7,5.8100
741.9,0.0000
743.1,0.0000
744.3,76.5500
745.5,82.2200
746.7,10.0300
747.9,24.6300
749.0,12.5600
750.2,43.2900
751.5,62.3400
752.6,13.6500
753.8,38.8200
755.0,14.6100
756.2,0.0000
757.4,32.5900
758.6,0.0000
759.8,17.6600
761.0,0.0000
762.2,0.0000
763.4,0.0000
764.6,0.0000
765.8,11.7200
767.0,0.0000
768.2,48.8800
769.4,20.8500
770.6,37.0600
771.8,49.9400
773.0,131.3200
774.1,134.2500
775.3,153.1900
776.5,155.5800
777.7,192.7200
778.9,170.2900
780.1,210.7300
781.3,185.0300
782.5,236.4700
783.7,276.3300
784.9,215.9600
786.0,243.7100
787.2,267.6000
788.4,265.6200
789.6,203.1600
790.8,207.8100
792.0,264.7000
793.2,249.5700
794.4,243.8000
795.6,216.6200
796.8,272.9300
797.9,240.8300
799.1,277.3600
800.3,170.1300
801.5,209.4100
802.7,225.6500
803.9,156.3700
805.0,179.7600
806.2,179.5900
807.4,175.0400
808.6,194.6000
809.8,122.7200
811.0,166.9300
812.2,120.8300
813.3,115.2500
814.5,139.7600
815.7,94.8300
816.9,20.4000
818.1,80.4700
819.2,23.5800
820.4,115.3200
821.6,89.6000
822.8,32.7800
824.0,77.5300
825.2,8.2000
826.3,24.4500
827.5,15.0500
828.7,44.3900
829.9,0.0000
831.1,0.0000
832.2,1.6200
833.4,2.6500
834.6,0.0000
835.8,0.0000
837.0,0.0000
838.1,0.0000
839.3,0.0000
840.5,0.0000
841.7,0.0000
842.8,0.0000
844.0,0.0000
845.2,0.0000
846.4,0.0000
847.5,0.0000
848.7,0.0000
849.9,0.0000
851.1,0.0000
852.2,42.5500
853.4,0.0000
854.6,98.7300
855.8,141.1700
856.9,248.0100
858.1,407.3700
859.3,619.6400
860.5,906.2900
861.6,1191.7800
862.8,1588.8300
864.0,2043.7400
865.1,2706.0200
866.3,3451.5000
867.5,4406.8900
868.6,5594.8100
869.8,7037.8800
871.0,8894.0400
872.2,10888.6700
873.3,13154.2800
874.5,15293.0800
875.7,17223.9900
876.8,18369.4900
878.0,18986.8400
879.2,18595.6600
880.3,17397.0200
881.5,15791.8200
882.7,13787.2700
883.8,11738.0300
885.0,9813.7400
886.2,7982.4600
887.3,6509.8500
888.5,5162.4700
889.7,4208.0300
890.8,3297.6400
892.0,2582.3900
893.2,1928.8900
894.3,1456.3700
895.5,1055.7600
896.7,796.6100
897.8,479.8400
899.0,335.7100
900.1,156.2500
901.3,34.2700
902.5,56.5100
903.6,30.5600
904.8,0.0000
906.0,0.0000
907.1,0.0000
908.3,0.0000
909.4,0.0000
910.6,0.0000
911.8,0.0000
912.9,0.0000
914.1,0.0000
915.2,0.0000
916.4,0.0000
917.6,0.0000
918.7,0.0000
919.9,0.0000
921.0,0.0000
922.2,0.0000
923.4,21.4500
924.5,0.0000
925.7,0.0000
926.8,0.0000
928.0,1.1200
929.1,11.3000
930.3,0.0000
931.4,9.1500
932.6,0.0000
933.8,0.0000
934.9,0.0000
936.1,0.0000
937.2,2.2500
938.4,43.1600
939.5,0.0000
940.7,0.0000
941.8,0.0000
943.0,20.7200
944.1,35.5500
945.3,0.0000
946.4,0.0000
947.6,33.2800
948.7,0.0000
949.9,20.9600
951.0,70.3600
952.2,0.0000
953.3,0.0000
954.5,30.0800
955.6,0.9700
956.8,19.6300
957.9,32.3800
959.1,40.3200
960.2,0.0000
961.4,33.8600
962.5,0.0000
963.7,0.0000
964.8,52.6400
966.0,0.0000
967.1,41.6700
968.3,8.1800
969.4,39.0400
970.5,61.8700
971.7,0.0000
972.8,20.5200
974.0,67.3300
975.1,0.0000
976.3,24.6300
977.4,59.4900
978.6,57.9100
979.7,0.0000
980.9,26.2400
982.0,0.0000
983.1,16.0600
984.3,0.0800
985.4,41.4500
986.6,31.3700
987.7,0.0000
988.8,35.9900
990.0,41.0300
991.1,46.6200
992.3,0.0000
993.4,0.0000
994.5,44.6500
995.7,18.9000
996.8,12.9800
998.0,0.0000
999.1,62.6000
1000.2,12.0400
1001.4,0.0000
1002.5,35.3100
1003.6,42.7000
1004.8,53.3000
1005.9,0.0000
1007.0,25.6400
1008.2,14.7100
1009.3,51.4600
1010.5,6.7800
1011.6,24.0600
1012.7,25.2800
1013.9,53.2900
1015.0,32.5400
1016.1,39.6700
1017.3,33.4000
1018.4,18.0300
1019.5,20.8900
1020.7,75.2000
1021.8,35.7300
1022.9,0.0000
1024.1,35.4800
1025.2,31.8200
1026.3,36.2200
1027.5,63.1300
1028.6,0.0000
1029.7,72.9000
1030.8,62.7300
1032.0,50.9500
1033.1,57.4100
1034.2,56.3700
1035.4,71.9600
1036.5,53.7700
1037.6,36.6600
1038.7,92.4800
1039.9,37.3100
1041.0,58.8300
1042.1,81.4200
1043.2,106.7100
1044.4,89.6300
1045.5,61.8300
1046.6,120.3900
1047.8,124.7900
1048.9,110.4100
1050.0,108.3800
1051.1,150.8900
1052.2,98.4400
1053.4,76.0300
1054.5,61.6700
1055.6,139.6400
1056.8,53.9100
1057.9,133.5000
1059.0,90.1800
1060.1,73.1700
1061.2,89.9800
1062.4,69.7500
1063.5,109.1400
1064.6,134.0300
1065.7,136.3800
1066.8,107.0400
1068.0,98.1100
1069.1,106.9200
1070.2,129.7000
1071.3,112.7300
1072.4,148.4300
1073.6,32.5800
1074.7,26.3600
1075.8,75.2300
1076.9,84.3200
1078.0,132.6700
1079.2,107.9000
1080.3,34.7400
1081.4,94.4100
1082.5,89.5500
1083.6,64.8000
1084.7,67.4800
1085.8,56.1700
1087.0,37.3400
1088.1,63.7100
1089.2,73.9500
1090.3,69.1200
1091.4,69.6800
1092.5,67.5500
1093.6,65.9700
1094.8,74.6200
1095.9,0.0000
1097.0,27.4300
1098.1,7.6600
1099.2,33.0100
1100.3,76.1500
1101.4,13.6600
1102.5,44.4200
1103.6,92.9800
1104.8,28.3300
1105.9,15.4300
1107.0,0.9200
1108.1,69.5300
1109.2,10.3000
1110.3,41.7100
1111.4,24.0200
1112.5,19.8200
1113.6,25.8900
1114.7,0.0000
1115.8,0.0000
1116.9,66.1800
1118.0,10.4500
1119.2,25.4700
1120.3,31.3200
1121.4,0.0000
1122.5,27.2000
1123.6,22.6300
1124.7,51.0500
1125.8,0.0000
1126.9,50.7000
1128.0,1.9000
1129.1,6.7400
1130.2,50.0200
1131.3,4.5500
1132.4,28.9100
1133.5,31.0700
1134.6,8.3400
1135.7,74.9700
1136.8,33.8300
1137.9,71.2400
1139.0,0.0000
1140.1,10.6500
1141.2,60.0600
1142.3,0.0000
1143.4,26.4000
1144.5,0.0000
1145.6,66.1100
1146.7,19.6700
1147.8,55.7200
1148.9,38.0400
1150.0,3.5300
1151.1,10.4700
1152.2,12.5300
1153.3,8.0700
1154.4,65.0200
1155.5,30.6900
1156.6,25.1600
1157.7,50.0900
1158.8,80.4700
1159.9,34.7100
1161.0,0.0000
1162.1,84.8900
1163.2,35.5300
1164.2,33.5400
1165.3,62.5900
1166.4,57.8900
1167.5,26.4900
1168.6,52.8500
1169.7,42.1700
1170.8,70.1900
1171.9,72.6100
1173.0,67.3900
1174.1,74.1800
1175.2,61.3300
1176.2,5.3500
1177.3,42.9900
1178.4,97.0400
1179.5,72.4600
1180.6,32.5700
1181.7,70.8200
1182.8,123.3200
1183.9,40.2200
1185.0,52.8100
1186.0,29.8600
1187.1,104.3100
1188.2,0.0000
1189.3,86.4000
1190.4,73.3800
1191.5,54.8700
1192.6,78.0100
1193.7,77.0500
1194.7,67.8700
1195.8,32.3700
1196.9,64.8800
1198.0,49.6700
1199.1,24.5800
1200.2,61.5200
1201.2,108.3700
1202.3,63.5100
1203.4,65.8900
1204.5,34.2100
1205.6,75.6300
1206.7,32.3900
1207.7,45.2400
1208.8,41.5900
1209.9,54.4700
1211.0,97.0800
1212.1,24.6300
1213.1,30.9100
1214.2,65.8600
1215.3,97.5300
1216.4,48.1700
1217.5,10.9200
1218.5,45.9200
1219.6,31.8300
1220.7,74.0500
1221.8,30.7000
1222.8,25.4500
1223.9,44.5200
1225.0,53.0900
1226.1,8.6100
1227.1,52.4600
1228.2,38.8200
1229.3,46.7500
1230.4,63.5500
1231.4,73.7200
1232.5,78.3600
1233.6,35.9200
1234.7,73.8200
1235.7,98.4400
1236.8,73.1700
1237.9,47.8900
1239.0,25.3700
1240.0,72.2300
1241.1,32.5000
1242.2,47.7400
1243.2,18.5400
1244.3,42.1400
1245.4,70.7700
1246.5,41.0000
1247.5,71.8800
1248.6,35.9900
1249.7,54.0900
1250.7,72.7600
1251.8,67.5000
1252.9,22.0900
1253.9,7.3300
1255.0,5.7700
1256.1,80.3800
1257.1,37.8300
1258.2,37.6900
1259.3,38.1100
1260.3,27.3600
1261.4,47.9200
1262.5,58.9800
1263.5,32.0200
1264.6,55.9700
1265.7,83.8600
1266.7,13.7600
1267.8,19.2600
1268.8,0.0000
1269.9,1.0100
1271.0,78.8100
1272.0,57.3600
1273.1,0.0000
1274.2,63.2300
1275.2,69.8000
1276.3,21.3000
1277.3,17.7500
1278.4,66.4900
1279.5,38.2100
1280.5,0.0000
1281.6,60.9900
1282.6,36.6400
1283.7,68.0500
1284.8,39.7500
1285.8,77.9700
1286.9,38.3800
1287.9,80.0200
1289.0,2.5900
1290.0,69.8000
1291.1,58.5400
1292.2,71.0200
1293.2,69.9400
1294.3,40.0100
1295.3,41.1900
1296.4,32.7500
1297.4,48.6600
1298.5,28.3200
1299.5,48.2200
1300.6,15.4100
1301.7,46.1100
1302.7,57.5400
1303.8,103.0500
1304.8,57.1500
1305.9,56.1200
1306.9,29.5000
1308.0,0.0000
1309.0,66.5100
1310.1,81.8300
1311.1,51.6100
1312.2,88.6000
1313.2,66.9100
1314.3,78.8600
1315.3,103.9400
1316.4,65.1300
1317.4,39.9900
1318.5,103.3700
1319.5,68.5200
1320.6,25.0600
1321.6,89.1100
1322.7,79.4000
1323.7,98.3000
1324.7,64.5400
1325.8,18.1500
1326.8,35.3500
1327.9,74.3600
1328.9,76.6900
1330.0,83.0500
1331.0,71.6100
1332.1,63.0500
1333.1,71.1400
1334.2,49.9200
1335.2,0.0000
1336.2,0.0000
1337.3,27.5000
1338.3,81.0700
1339.4,55.7200
1340.4,79.3800
1341.4,37.2800
1342.5,100.2100
1343.5,58.1000
1344.6,37.9100
1345.6,59.3200
1346.7,47.2200
1347.7,50.7300
1348.7,69.8800
1349.8,61.2500
1350.8,36.4000
1351.8,74.7200
1352.9,31.8700
1353.9,45.8600
1355.0,34.3200
1356.0,35.5600
1357.0,53.6500
1358.1,70.0300
1359.1,55.0100
1360.1,43.4700
1361.2,62.2100
1362.2,0.0000
1363.2,63.9000
1364.3,31.6500
1365.3,60.0600
1366.3,13.7800
1367.4,20.0300
1368.4,49.0800
1369.4,55.3600
1370.5,82.7100
1371.5,54.5000
1372.5,17.4800
1373.6,50.1400
1374.6,61.1600
1375.6,0.0000
1376.7,63.2700
1377.7,67.2500
1378.7,18.9700
1379.8,36.4700
1380.8,14.5900
1381.8,69.7700
1382.8,32.6000
1383.9,59.5800
1384.9,36.5200
1385.9,68.8500
1387.0,20.4100
1388.0,11.4700
1389.0,0.0000
1390.0,0.8500
1391.0,29.9600
1392.1,59.7000
1393.1,12.5500
1394.1,19.8200
1395.2,32.4500
1396.2,0.0000
1397.2,7.0700
1398.2,17.6800
1399.2,11.6800
1400.3,27.6600
1401.3,28.8100
1402.3,11.5200
1403.3,40.6400
1404.4,2.5200
1405.4,52.6600
1406.4,32.5200
1407.4,25.4900
1408.4,19.0500
1409.5,24.5500
1410.5,0.0000
1411.5,7.4500
1412.5,51.2000
1413.5,19.0100
1414.6,29.9000
1415.6,16.2400
1416.6,4.9700
1417.6,14.9400
1418.6,0.0000
1419.7,53.1400
1420.7,18.3000
1421.7,53.1700
1422.7,9.8800
1423.7,63.9500
1424.7,47.6200
1425.7,43.9400
1426.8,92.1100
1427.8,29.9400
1428.8,22.0300
1429.8,78.1500
1430.8,94.4500
1431.8,21.8700
1432.8,61.0400
1433.8,55.4600
1434.9,104.4100
1435.9,60.6700
1436.9,136.9800
1437.9,115.6700
1438.9,68.8300
1439.9,133.7600
1440.9,141.0000
1441.9,89.2400
1443.0,120.2100
1444.0,105.5400
1445.0,74.4000
1446.0,84.7000
1447.0,123.1000
1448.0,167.0400
1449.0,97.9900
1450.0,159.1000
1451.0,136.4700
1452.0,106.4700
1453.0,157.3000
1454.0,111.9600
1455.0,137.7200
1456.0,146.3300
1457.0,141.4400
1458.0,66.4900
1459.0,83.7000
1460.1,150.7700
1461.1,118.1800
1462.1,146.5600
1463.1,107.1600
1464.1,140.5000
1465.1,168.9600
1466.1,138.7700
1467.1,150.5800
1468.1,182.8300
1469.1,132.8000
1470.1,163.8400
1471.1,125.5200
1472.1,92.7400
1473.1,149.2700
1474.1,153.7200
1475.1,130.2300
1476.1,125.9800
1477.1,134.1700
1478.1,101.9100
1479.1,128.7900
1480.1,112.7100
1481.1,75.3900
1482.1,92.9600
1483.1,122.4300
1484.1,83.8100
1485.0,110.1900
1486.0,70.8900
1487.0,81.0300
1488.0,57.3300
1489.0,10.4100
1490.0,31.1000
1491.0,0.0000
1492.0,67.2700
1493.0,77.7200
1494.0,7.6400
1495.0,0.0000
1496.0,70.5000
1497.0,27.4100
1498.0,56.8300
1499.0,8.6300
1500.0,6.4900
1500.9,62.8500
1501.9,57.2800
1502.9,6.1100
1503.9,32.1900
1504.9,0.0000
1505.9,6.7800
1506.9,26.3000
1507.9,29.9800
1508.8,0.0000
1509.8,7.8500
1510.8,0.0000
1511.8,36.4000
1512.8,18.1600
1513.8,17.7800
1514.8,41.6700
1515.8,0.0000
1516.7,52.9300
1517.7,40.2500
1518.7,0.0000
1519.7,0.0000
1520.7,5.9800
1521.7,35.6900
1522.7,0.0000
1523.6,0.0000
1524.6,27.7800
1525.6,70.2500
1526.6,31.6300
1527.6,0.0000
1528.5,23.7900
1529.5,32.7300
1530.5,0.0000
1531.5,46.5200
1532.5,35.8400
1533.5,0.0000
1534.4,0.0000
1535.4,0.0000
1536.4,3.2900
1537.4,0.0500
1538.3,0.0000
1539.3,63.9800
1540.3,62.2900
1541.3,24.7800
1542.2,0.0000
1543.2,0.0000
1544.2,0.0000
1545.2,25.0900
1546.2,8.4600
1547.1,0.0000
1548.1,0.0000
1549.1,25.7500
1550.0,64.4300
1551.0,19.8600
1552.0,89.5100
1553.0,31.1300
1554.0,0.3100
1554.9,0.0000
1555.9,62.9000
1556.9,51.0200
1557.8,67.5100
1558.8,97.9200
1559.8,0.0000
1560.8,11.4100
1561.7,0.0000
1562.7,5.1500
1563.7,18.1200
1564.6,27.8200
1565.6,16.9800
1566.6,24.7500
1567.5,0.0000
1568.5,20.7000
1569.5,0.0000
1570.4,4.9900
1571.4,0.0000
1572.4,20.3000
1573.3,0.0000
1574.3,7.2000
1575.3,0.0000
1576.2,23.4500
1577.2,3.4400
1578.2,0.0000
1579.1,14.0200
1580.1,0.0000
1581.1,5.4600
1582.0,27.1700
1583.0,44.9200
1584.0,47.9100
1584.9,42.5400
1585.9,54.8500
1586.8,97.0000
1587.8,135.8400
1588.8,135.5300
1589.7,144.0400
1590.7,210.6200
1591.6,176.9300
1592.6,281.7500
1593.6,379.9300
1594.5,328.6800
1595.5,403.9200
1596.4,435.0000
1597.4,450.4600
1598.3,487.7600
1599.3,545.6000
1600.3,537.2500
1601.2,577.4400
1602.2,606.0500
1603.1,651.8300
1604.1,737.4400
1605.0,726.4500
1606.0,741.5200
1607.0,830.1500
1607.9,857.0200
1608.9,955.5300
1609.8,999.0800
1610.8,1037.1700
1611.7,998.7100
1612.7,1091.4300
1613.6,1140.7500
1614.6,1125.1000
1615.5,1237.5300
1616.5,1246.8800
1617.4,1365.8400
1618.4,1432.9200
1619.3,1412.5600
1620.3,1436.6700
1621.2,1494.9200
1622.2,1556.0600
1623.1,1521.0700
1624.1,1603.9500
1625.0,1649.9500
1626.0,1741.4600
1626.9,1662.4100
1627.9,1725.3700
1628.8,1804.5500
1629.8,1831.9500
1630.7,1877.6500
1631.7,1831.3700
1632.6,1837.0500
1633.6,1865.2600
1634.5,1825.8700
1635.5,1921.8000
1636.4,1926.1400
1637.3,1877.5100
1638.3,1857.0600
1639.2,1885.4000
1640.2,1915.9000
1641.1,1932.9900
1642.1,1929.5200
1643.0,2015.5200
1643.9,1912.6000
1644.9,1911.2200
1645.8,1909.1200
1646.8,1855.7000
1647.7,1872.7900
1648.7,1936.3100
1649.6,1934.9200
1650.5,1929.2200
1651.5,1962.1600
1652.4,1880.5200
1653.3,1861.1200
1654.3,1823.0100
1655.2,1825.0500
1656.2,1814.1500
1657.1,1818.3400
1658.0,1707.2700
1659.0,1734.4300
1659.9,1728.4300
1660.8,1647.3000
1661.8,1634.6900
1662.7,1598.1700
1663.7,1596.3500
1664.6,1565.5200
1665.5,1480.2000
1666.5,1447.7400
1667.4,1474.0900
1668.3,1322.9500
1669.2,1351.4000
1670.2,1363.8700
1671.1,1318.7100
1672.0,1274.9200
1673.0,1322.4100
1673.9,1282.1900
1674.8,1142.2900
1675.8,1125.2600
1676.7,1071.5100
1677.6,1039.6900
1678.6,1017.3500
1679.5,974.3700
1680.4,946.7600
1681.4,906.5600
1682.3,936.3600
1683.2,938.8900
1684.1,810.5900
1685.1,847.7600
1686.0,759.1000
1686.9,711.0400
1687.8,717.0400
1688.8,627.2400
1689.7,685.1900
1690.6,581.7800
1691.5,533.2800
1692.5,459.3300
1693.4,490.4500
1694.3,376.7200
1695.2,412.2800
1696.2,382.8000
1697.1,289.5900
1698.0,284.6600
1698.9,262.4500
1699.9,232.6800
1700.8,159.2300
1701.7,169.6200
1702.6,99.3900
1703.5,133.5400
1704.5,71.1100
1705.4,111.0700
1706.3,104.9400
1707.2,94.9700
1708.2,52.3600
1709.1,14.5200
1710.0,98.7700
1710.9,49.3800
1711.8,57.6600
1712.8,26.3200
1713.7,34.2800
1714.6,36.1200
1715.5,12.7000
1716.4,36.4500
1717.3,0.0000
1718.2,25.5200
1719.2,45.9300
1720.1,11.0700
1721.0,0.0000
1721.9,2.9200
1722.8,53.7500
1723.7,0.0000
1724.7,2.0800
1725.6,17.4900
1726.5,0.0000
1727.4,0.0000
1728.3,3.5200
1729.2,0.0000
1730.1,0.0000
1731.0,0.0000
1731.9,46.6100
1732.8,0.0000
1733.8,20.6600
1734.7,0.3900
1735.6,0.0000
1736.5,34.9500
1737.4,11.7000
1738.3,0.0000
1739.2,3.8400
1740.1,12.2500
1741.0,8.8600
1741.9,8.5800
1742.8,23.2200
1743.8,15.0100
1744.7,9.9000
1745.6,63.1500
1746.5,25.6300
1747.4,43.3600
1748.3,40.5100
1749.2,1.9500
1750.1,20.4000
1751.0,50.7700
1751.9,0.0000
1752.8,0.0000
1753.7,18.8300
1754.6,27.9000
1755.5,0.0000
1756.4,0.0000
1757.3,21.0000
1758.2,29.7700
1759.1,0.0000
1760.0,0.0000
1760.9,23.2900
1761.8,16.3100
1762.7,12.5100
1763.6,2.2400
1764.5,0.0000
1765.4,33.2900
1766.3,18.1400
1767.2,15.0800
1768.1,15.2300
1769.0,14.5600
1769.9,0.0000
1770.8,90.0400
1771.7,38.6900
1772.6,0.0000
1773.5,11.2800
1774.4,41.1000
1775.3,55.4500
1776.2,26.4800
1777.1,3.9800
1778.0,15.8200
1778.9,0.0000
1779.8,30.3200
1780.6,5.0200
1781.5,0.0000
1782.4,0.0000
1783.3,0.0000
1784.2,51.0300
1785.1,49.5000
1786.0,41.3400
1786.9,9.1400
1787.8,20.7900
1788.7,0.0000
1789.6,3.1700
1790.5,0.0000
1791.3,23.0100
1792.2,0.0000
1793.1,19.8300
1794.0,24.8700
1794.9,61.6800
1795.8,55.8800
1796.7,2.3000
1797.5,38.3400
1798.4,38.3300
1799.3,61.8600
1800.2,67.7500
1801.1,0.0000
1802.0,15.8100
1802.9,57.4500
1803.8,55.2300
1804.6,11.5300
1805.5,75.3000
1806.4,0.0000
1807.3,46.0700
1808.2,16.4500
1809.0,29.3100
1809.9,0.4400
1810.8,34.6200
1811.7,0.0000
1812.6,20.6200
1813.5,13.3200
1814.3,0.0000
1815.2,27.7100
1816.1,0.0000
1817.0,6.9200
1817.9,64.0600
1818.7,0.0000
1819.6,38.9400
1820.5,45.2800
1821.4,79.2700
1822.2,51.9100
1823.1,53.0700
1824.0,25.6200
1824.9,73.6000
1825.8,36.5400
1826.6,64.6400
1827.5,56.2100
1828.4,85.2500
1829.3,33.1800
1830.1,82.3500
1831.0,83.5100
1831.9,75.0300
1832.8,1.6600
1833.6,55.4600
1834.5,35.5700
1835.4,44.6600
1836.2,21.1800
1837.1,18.8000
1838.0,0.0000
1838.9,1.9700
1839.7,48.6400
1840.6,32.5300
1841.5,23.4600
1842.3,11.7200
1843.2,49.7000
1844.1,36.1700
1845.0,83.1700
1845.8,58.0400
1846.7,33.7500
1847.6,10.2800
1848.4,87.8800
1849.3,73.3700
1850.2,10.4000
1851.0,0.0000
1851.9,40.7500
1852.8,39.0300
1853.6,30.1000
1854.5,13.0300
1855.4,35.6500
1856.2,10.4000
1857.1,33.0600
1858.0,37.6500
1858.8,39.5300
1859.7,23.2400
1860.5,23.2700
1861.4,51.5300
1862.3,49.7800
1863.1,24.2800
1864.0,13.3400
1864.9,0.0000
1865.7,35.2300
1866.6,23.2300
1867.4,0.0000
1868.3,19.1400
1869.2,49.1800
1870.0,1.9000
1870.9,21.0100
1871.7,47.5500
1872.6,30.7000
1873.5,6.4100
1874.3,43.2100
1875.2,1.2400
1876.0,2.8800
1876.9,10.2500
1877.7,26.9400
1878.6,54.8600
1879.5,21.2400
1880.3,94.9900
1881.2,63.2100
1882.0,65.0600
1882.9,48.1600
1883.7,32.1600
1884.6,50.9000
1885.4,59.3200
1886.3,46.0900
1887.2,0.0000
1888.0,9.4100
1888.8,49.2800
1889.7,4.0500
1890.6,65.0700
1891.4,25.6400
1892.3,9.8700
1893.1,28.3100
1894.0,0.0000
1894.8,37.0300
1895.7,31.0700
1896.5,0.0000
1897.4,26.9700
1898.2,44.1700
1899.1,17.2900
1899.9,9.5600
1900.8,38.3500
1901.6,21.0000
1902.5,43.1200
1903.3,13.1900
1904.1,44.0600
1905.0,19.8600
1905.8,14.9800
1906.7,50.8100
1907.5,56.6400
1908.4,70.2600
1909.2,4.0900
1910.1,90.9800
1910.9,69.7700
1911.8,51.4400
1912.6,43.8200
1913.4,37.1700
1914.3,36.3800
1915.1,1.2300
1916.0,63.3700
1916.8,32.1700
1917.7,96.4700
1918.5,55.3700
1919.3,0.0000
1920.2,40.3200
1921.0,29.9000
1921.8,86.8800
1922.7,30.8400
1923.5,59.1500
1924.4,88.5200
1925.2,40.2400
1926.0,25.7700
1926.9,30.2500
1927.7,0.0000
1928.6,22.7500
1929.4,78.9200
1930.2,45.8800
1931.1,26.8400
1931.9,49.0100
1932.7,23.8900
1933.6,8.7900
1934.4,33.0500
1935.2,129.2000
1936.1,75.7000
1936.9,45.4000
1937.7,85.0800
1938.6,0.0000
1939.4,4.6200
1940.2,77.9600
1941.1,86.1700
1941.9,70.9100
1942.7,48.4600
1943.6,73.0600
1944.4,69.0200
1945.2,44.4300
1946.1,19.7900
1946.9,30.0900
1947.7,28.0400
1948.5,62.1300
1949.4,35.3200
1950.2,3.2800
1951.0,38.6700
1951.9,80.3800
1952.7,84.8000
1953.5,0.0000
1954.3,91.3300
1955.2,28.7800
1956.0,77.7800
1956.8,66.2900
1957.7,36.9800
1958.5,28.5700
1959.3,46.3700
1960.1,41.1100
1961.0,98.9700
1961.8,54.7900
1962.6,59.0300
1963.4,80.1900
1964.2,70.7400
1965.1,88.8000
1965.9,25.2800
1966.7,38.0400
1967.5,74.2200
1968.4,33.8600
1969.2,68.0100
1970.0,33.9600
1970.8,93.8600
1971.6,60.8300
1972.5,9.5200
1973.3,93.2400
1974.1,83.7300
1974.9,25.8100
1975.7,89.4300
1976.6,33.5400
1977.4,1.2600
1978.2,53.2900
1979.0,39.4300
1979.8,1.6900
1980.7,1.9300
1981.5,18.5800
1982.3,69.0100
1983.1,52.0200
1983.9,83.0000
1984.7,47.4200
1985.5,0.8100
1986.4,43.9600
1987.2,29.0800
1988.0,62.5000
1988.8,43.2300
1989.6,71.2600
1990.4,0.0000
1991.2,38.0800
1992.0,69.5000
1992.9,34.5900
1993.7,55.0100
1994.5,39.9800
1995.3,60.4700
1996.1,54.3200
1996.9,71.5600
1997.7,81.0400
1998.5,12.3300
1999.3,43.0300
2000.2,52.5300
2001.0,4.8400
2001.8,28.0400
2002.6,98.5600
2003.4,45.3700
2004.2,30.3900
2005.0,50.3800
2005.8,24.0700
2006.6,86.0200
2007.4,55.1500
2008.2,38.9700
2009.0,0.0000
2009.8,40.4800
2010.6,24.0600
2011.5,32.7200
2012.2,58.5500
2013.1,74.1500
2013.9,50.8300
2014.7,29.7500
2015.5,93.6600
2016.3,0.0000
2017.1,35.7400
2017.9,62.2600
2018.7,61.1300
2019.5,25.2900
2020.3,65.8300
2021.1,97.2100
2021.9,58.9700
2022.7,53.2100
2023.5,109.1900
2024.3,46.3300
2025.1,68.5900
2025.9,45.2900
2026.7,53.5600
2027.5,41.9300
2028.3,58.4600
2029.1,32.6900
2029.9,48.0900
2030.7,78.8700
2031.5,37.7000
2032.2,76.8400
2033.0,48.6000
2033.8,8.4200
2034.6,76.6300
2035.4,54.6600
2036.2,33.8200
2037.0,46.3200
2037.8,82.7500
2038.6,106.1200
2039.4,79.2800
2040.2,81.1400
2041.0,10.9700
2041.8,65.0100
2042.6,57.8000
2043.4,65.0400
2044.2,52.9900
2045.0,63.8800
2045.7,53.0100
2046.5,84.5500
2047.3,53.0400
2048.1,53.0700
2048.9,77.4500
2049.7,54.3500
2050.5,104.4500
2051.3,45.8800
2052.1,5.5200
2052.8,76.8900
2053.6,7.2800
2054.4,55.8600
2055.2,66.4200
2056.0,33.8600
2056.8,67.8800
2057.6,71.0900
2058.3,61.9300
2059.1,106.0600
2059.9,6.2900
2060.7,78.1500
2061.5,84.2100
2062.3,4.2600
2063.1,134.0700
2063.8,69.1900
2064.6,71.7400
2065.4,83.0800
2066.2,103.2400
2067.0,65.6100
2067.8,129.8800
2068.5,124.9700
2069.3,85.9500
2070.1,87.3000
2070.9,126.6400
2071.7,149.6000
2072.4,83.7300
2073.2,120.6900
2074.0,82.6200
2074.8,106.9300
2075.6,113.4300
2076.3,164.7200
2077.1,67.5700
2077.9,97.1300
2078.7,110.0800
2079.4,56.1800
2080.2,114.2000
2081.0,136.2600
2081.8,120.9200
2082.6,99.0700
2083.3,60.3100
2084.1,151.2000
2084.9,139.7000
2085.7,68.3000
2086.4,94.4400
2087.2,108.9000
2088.0,102.5000
2088.7,54.2000
2089.5,50.3300
2090.3,35.9400
2091.1,116.6400
2091.8,108.0600
2092.6,74.4000
2093.4,126.4500
2094.1,132.3700
2094.9,98.5900
2095.7,134.9800
2096.4,128.9700
2097.2,85.7100
2098.0,75.6200
2098.8,145.5100
2099.5,140.8000
2100.3,132.0700
2101.1,136.7000
2101.8,70.2300
2102.6,94.9300
2103.4,52.4200
2104.1,149.9100
2104.9,77.6600
2105.7,75.4700
2106.4,169.3500
2107.2,153.7200
2108.0,79.6800
2108.7,129.1000
2109.5,73.8600
2110.3,51.1600
2111.0,50.2400
2111.8,134.0700
2112.6,92.1800
2113.3,92.6700
2114.1,130.2400
2114.8,111.5200
2115.6,110.6500
2116.4,90.4600
2117.1,164.1400
2117.9,87.2400
2118.7,127.8700
2119.4,53.4600
2120.2,103.8800
2120.9,104.3500
2121.7,135.4700
2122.4,131.7900
2123.2,196.5900
2124.0,97.7800
2124.7,147.2900
2125.5,122.5200
2126.2,73.7600
2127.0,81.1900
2127.8,115.4400
2128.5,131.4200
2129.3,148.8600
2130.0,26.0800
2130.8,141.1900
2131.5,142.9600
2132.3,113.4100
2133.0,86.6200
2133.8,105.4100
2134.6,99.9500
2135.3,104.4900
2136.1,33.0300
2136.8,80.5400
2137.6,83.6100
2138.3,125.5600
2139.1,70.9800
2139.8,100.0200
2140.6,65.4800
2141.3,82.9800
2142.1,61.3500
2142.8,22.2100
2143.6,93.2200
2144.3,84.2500
2145.1,94.2300
2145.8,127.6200
2146.6,76.1600
2147.3,149.1900
2148.1,91.7100
2148.8,50.2200
2149.6,57.2200
2150.3,191.1200
2151.1,156.9400
2151.8,144.8500
2152.6,146.0500
2153.3,133.8800
2154.1,72.6000
2154.8,81.1100
2155.5,159.7200
2156.3,141.4700
2157.0,106.7000
2157.8,89.7900
2158.5,84.8200
2159.3,136.9200
2160.0,157.5700
2160.8,80.2900
2161.5,125.0400
2162.2,120.0200
2163.0,190.6900
2163.7,164.5000
2164.5,75.9400
2165.2,116.4000
2165.9,141.7400
2166.7,83.2200
2167.4,142.1800
2168.2,55.9000
2168.9,0.0000
2169.6,128.0900
2170.4,142.7600
2171.1,92.7800
2171.9,108.9600
2172.6,171.5300
2173.3,65.6200
2174.1,60.1000
2174.8,84.0400
2175.6,103.3800
2176.3,121.2100
2177.0,72.0300
2177.8,166.3800
2178.5,159.3300
2179.2,1.8300
2180.0,104.4100
2180.7,171.1500
2181.4,97.9900
2182.2,79.7700
2182.9,121.4800
2183.6,150.6500
2184.4,111.8000
2185.1,99.7800
2185.8,154.4400
2186.6,107.4100
2187.3,130.3500
2188.0,70.3400
2188.8,91.6800
2189.5,97.0500
2190.2,65.5300
2190.9,99.7700
2191.7,119.6200
2192.4,97.6200
2193.1,56.1800
2193.9,118.0400
2194.6,3.6100
2195.3,158.1800
2196.1,38.7300
2196.8,166.1600
2197.5,82.1700
2198.2,38.7000
2199.0,55.5500
2199.7,39.6900
2200.4,40.1800
2201.2,96.4800
2201.9,85.5100
2202.6,90.9700
2203.3,55.1800
2204.1,83.7200
2204.8,64.3300
2205.5,97.9200
2206.2,40.2700
2206.9,90.5300
2207.7,139.2700
2208.4,48.0000
2209.1,41.6500
2209.8,110.6000
2210.6,89.2200
2211.3,134.9200
2212.0,111.8000
2212.7,150.9200
2213.4,72.0400
2214.2,97.6700
2214.9,133.5300
2215.6,54.2000
2216.3,76.5000
2217.0,39.3200
2217.8,0.0000
2218.5,12.2600
2219.2,125.7000
2219.9,85.4200
2220.6,41.5700
2221.3,78.2700
2222.1,58.3200
2222.8,65.8500
2223.5,104.4500
2224.2,93.0300
2224.9,15.7800
2225.7,9.3500
2226.4,0.0000
2227.1,117.3600
2227.8,50.5000
2228.5,53.2100
2229.2,159.0600
2229.9,60.3600
2230.7,50.7800
2231.4,28.8500
2232.1,43.7800
2232.8,55.2200
2233.5,66.6800
2234.2,72.8500
2234.9,52.4600
2235.6,53.2800
2236.3,30.9800
2237.1,106.4800
2237.8,53.8500
2238.5,65.3200
2239.2,146.5600
2239.9,72.1900
2240.6,0.0000
2241.3,61.6500
2242.0,68.3200
2242.7,58.7800
2243.4,78.0900
2244.1,23.2700
2244.8,105.9800
2245.6,63.7100
2246.3,34.0200
2247.0,188.1400
2247.7,72.7900
2248.4,20.9900
2249.1,5.6200
2249.8,96.7800
2250.5,30.3200
2251.2,31.6700
2251.9,103.0200
2252.6,104.4800
2253.3,28.2900
2254.0,18.4800
2254.7,106.9200
2255.4,0.0000
2256.1,3.4200
2256.8,92.1500
2257.5,74.7500
2258.2,171.3500
2258.9,69.7100
2259.6,52.1500
2260.3,68.3400
2261.0,97.7400
2261.7,4.6700
2262.4,53.1600
2263.1,82.8800
2263.8,36.8900
2264.5,74.2400
2265.2,60.3700
2265.9,44.5300
2266.6,36.2500
2267.3,12.6500
2268.0,23.4000
2268.7,91.7000
2269.4,104.5100
2270.1,82.7300
2270.8,78.1900
2271.5,15.7300
2272.2,45.8400
2272.9,2.4400
2273.6,94.8100
2274.3,63.1000
2275.0,33.2100
2275.7,38.3100
2276.3,18.0200
2277.1,50.4600
2277.7,41.8500
2278.4,44.9700
2279.1,83.4800
2279.8,0.0000
2280.5,39.7900
2281.2,111.3500
2281.9,60.3900
2282.6,0.0000
2283.3,116.2900
2284.0,84.4100
2284.7,88.2800
2285.3,30.2600
2286.0,66.0300
2286.7,25.7900
2287.4,63.6500
2288.1,81.5400
2288.8,47.1200
2289.5,77.1200
2290.2,78.9200
2290.8,26.0700
2291.5,74.3900
2292.2,66.0100
2292.9,108.4400
2293.6,136.7500
2294.3,32.4500
2295.0,54.5600
2295.6,115.6600
2296.3,103.0900
2297.0,65.7900
2297.7,108.6600
2298.4,13.4800
2299.1,65.3100
2299.8,28.3300
2300.4,136.3200
2301.1,51.5300
2301.8,89.1800
2302.5,49.8300
2303.2,98.0100
2303.8,60.6100
2304.5,73.3400
2305.2,46.2300
2305.9,58.9500
2306.6,69.6000
2307.2,0.1200
2307.9,36.0300
2308.6,25.4900
2309.3,0.0000
2310.0,9.1300
2310.6,14.4200
2311.3,43.1700
2312.0,86.9500
2312.7,43.1900
2313.3,99.9600
2314.0,62.4800
2314.7,110.8600
2315.4,0.0000
2316.1,26.1200
2316.7,102.0000
2317.4,56.8900
2318.1,94.0400
2318.8,0.0000
2319.4,28.4600
2320.1,130.2000
2320.8,55.3700
2321.4,43.7400
2322.1,14.5200
2322.8,18.8500
2323.5,54.9300
2324.1,95.5300
2324.8,76.6700
2325.5,59.9500
2326.2,80.8000
2326.8,61.7900
2327.5,147.1600
2328.2,143.7600
2328.8,104.6500
2329.5,181.5800
2330.2,283.4000
2330.8,356.4200
2331.5,436.4300
2332.2,446.9400
2332.8,401.1200
2333.5,242.2000
2334.2,168.6800
2334.8,56.3600
2335.5,50.3400
2336.2,46.5600
2336.8,13.1400
2337.5,158.2900
2338.2,59.2700
2338.8,79.0100
2339.5,20.7800
2340.2,65.7800
2340.8,0.0000
2341.5,17.6500
2342.2,60.4100
2342.8,0.0000
2343.5,23.0400
2344.2,0.0000
2344.8,12.6000
2345.5,87.6500
2346.2,32.1400
2346.8,11.5300
2347.5,51.8000
2348.1,38.2000
2348.8,43.3700
2349.5,69.7700
2350.1,4.1600
2350.8,0.0000
2351.4,6.4400
2352.1,36.6000
