wavenumber,intensity
405.4,55.9000
406.7,69.9000
407.9,80.6800
409.2,72.7900
410.5,134.9600
411.7,134.1200
413.0,171.7800
414.3,186.9600
415.5,220.7000
416.8,294.7300
418.0,328.3600
419.3,389.4300
420.6,449.7900
421.8,520.9200
423.1,606.6400
424.3,683.3100
425.6,722.2800
426.9,763.1200
428.1,805.8200
429.4,823.0200
430.6,837.0300
431.9,806.5800
433.1,816.7800
434.4,814.9300
435.7,780.1300
436.9,755.5100
438.2,763.2100
439.4,763.9500
440.7,730.5600
442.0,728.1700
443.2,728.9400
444.5,686.8300
445.7,678.1800
447.0,633.0200
448.2,621.9100
449.5,551.0700
450.8,522.4400
452.0,513.3300
453.3,491.6800
454.5,474.4500
455.8,440.9500
457.0,399.3500
458.3,362.2000
459.5,347.6200
460.8,320.5700
462.0,316.0400
463.3,298.4200
464.6,277.0700
465.8,250.1500
467.1,254.4300
468.3,225.6900
469.6,218.1600
470.8,230.5500
472.1,223.0300
473.3,244.1100
474.6,239.7000
475.8,281.2200
477.1,317.7300
478.3,354.1900
479.6,409.1900
480.8,521.0500
482.1,574.0300
483.3,682.5600
484.6,801.4600
485.8,998.6100
487.1,1144.9300
488.3,1275.0400
489.6,1339.0700
490.8,1331.6000
492.1,1336.4600
493.3,1258.9100
494.6,1167.9500
495.8,1100.4400
497.1,991.2900
498.3,865.1000
499.6,789.3400
500.8,720.4100
502.0,630.7600
503.3,532.6600
504.5,478.0900
505.8,383.2700
507.0,336.8100
508.3,295.9100
509.5,256.8900
510.8,207.5600
512.0,183.2800
513.2,144.4100
514.5,139.0600
515.7,116.0900
517.0,86.4600
518.2,79.3500
519.5,54.0300
520.7,59.0900
522.0,42.9200
523.2,36.4700
524.4,37.3000
525.7,30.8600
526.9,33.5200
528.2,17.4300
529.4,1.3600
530.6,16.7900
531.9,0.2100
533.1,10.2100
534.4,5.7300
535.6,6.0800
536.9,0.0000
538.1,15.4000
539.3,0.9000
540.6,10.5100
541.8,2.6800
543.1,3.8800
544.3,0.0000
545.5,0.6200
546.8,0.0000
548.0,6.4000
549.2,1.6300
550.5,0.0000
551.7,2.6600
553.0,6.0600
554.2,0.0000
555.4,1.1800
556.7,3.0700
557.9,6.1500
559.1,6.8500
560.4,5.7600
561.6,0.0000
562.9,0.0000
564.1,7.3300
565.3,4.0300
566.6,0.0000
567.8,0.0000
569.0,6.7800
570.3,0.0000
571.5,0.0000
572.7,4.5400
574.0,2.5800
575.2,1.2200
576.4,7.5500
577.7,13.2800
578.9,9.5500
580.1,0.0000
581.4,6.7400
582.6,0.0000
583.8,1.8300
585.1,0.0000
586.3,5.4700
587.5,11.9700
588.8,9.6500
590.0,6.7300
591.2,8.5200
592.4,5.0300
593.7,13.8600
594.9,10.9500
596.1,7.4600
597.4,16.2800
598.6,9.8600
599.8,22.1800
601.0,19.2800
602.3,11.7000
603.5,18.7400
604.7,4.7400
606.0,18.2100
607.2,14.1500
608.4,10.6700
609.6,9.5300
610.9,15.3900
612.1,10.7600
613.3,7.8800
614.5,13.1500
615.8,17.8300
617.0,6.2300
618.2,10.9100
619.4,10.3600
620.7,4.0100
621.9,9.2700
623.1,6.9800
624.3,0.0600
625.6,0.0900
626.8,5.9200
628.0,2.4900
629.2,15.8300
630.5,7.1900
631.7,0.0000
632.9,0.0000
634.1,3.7900
635.3,2.0700
636.6,11.3100
637.8,7.8500
639.0,8.4400
640.2,15.9400
641.4,11.3400
642.7,0.4100
643.9,0.0000
645.1,5.5700
646.3,11.3000
647.5,3.2200
648.8,2.0500
650.0,4.9000
651.2,4.3000
652.4,2.5500
653.6,2.5300
654.9,0.0000
656.1,9.8900
657.3,12.6800
658.5,8.6000
659.7,9.1000
660.9,0.0000
662.1,7.7500
663.4,8.7600
664.6,4.0500
665.8,0.0000
667.0,1.9900
668.2,12.0300
669.4,0.0000
670.7,5.8500
671.9,4.4500
673.1,9.3200
674.3,3.3700
675.5,9.9300
676.7,9.1000
677.9,8.8500
679.1,2.3400
680.4,2.0800
681.6,5.2300
682.8,4.4000
684.0,5.2800
685.2,3.3200
686.4,0.2300
687.6,5.0800
688.9,11.0500
690.1,0.6000
691.3,2.0400
692.5,2.9200
693.7,6.0500
694.9,5.8000
696.1,10.6300
697.3,5.8500
698.5,0.0000
699.7,5.2500
700.9,1.5200
702.1,6.8200
703.4,1.4000
704.6,12.3300
705.8,9.1600
707.0,0.0000
708.2,10.0400
709.4,7.3200
710.6,0.0000
711.8,2.8200
713.0,7.7800
714.2,7.1200
715.4,0.0000
716.6,0.0000
717.8,0.0000
719.0,1.9500
720.2,0.0000
721.4,3.4400
722.6,0.1900
723.8,8.1400
725.0,0.0000
726.2,2.8200
727.5,5.7800
728.7,2.5900
729.9,9.4600
731.1,2.9100
732.3,0.0000
733.5,0.0000
734.7,0.0000
735.9,0.0000
737.1,4.0900
738.3,0.9600
739.5,3.4000
740.7,0.0000
741.9,0.0000
743.1,1.8100
744.3,0.0000
745.5,9.7200
746.7,0.4900
747.9,6.2700
749.0,0.0000
750.2,0.0000
751.5,0.0000
752.6,3.1500
753.8,3.6000
755.0,0.0000
756.2,0.0000
757.4,0.0000
758.6,13.7100
759.8,0.0000
761.0,2.8600
762.2,0.0000
763.4,0.0000
764.6,1.4600
765.8,0.0000
767.0,3.0200
768.2,0.0000
769.4,0.0000
770.6,2.8300
771.8,0.0000
773.0,0.4800
774.1,6.7200
775.3,0.0000
776.5,2.6800
777.7,3.2600
778.9,0.0000
780.1,17.3200
781.3,38.1400
782.5,19.2700
783.7,47.1900
784.9,74.1600
786.0,89.5600
787.2,111.5500
788.4,110.4300
789.6,122.5000
790.8,137.3200
792.0,147.7300
793.2,182.8700
794.4,217.4400
795.6,233.8600
796.8,298.0500
797.9,322.6800
799.1,365.4000
800.3,428.9500
801.5,491.3800
802.7,595.9900
803.9,706.5800
805.0,806.7000
806.2,1001.5600
807.4,1254.9300
808.6,1566.7600
809.8,2025.7200
811.0,2585.1600
812.2,3434.3400
813.3,4593.2900
814.5,6260.8600
815.7,8513.7800
816.9,11263.0600
818.1,14693.6100
819.2,19143.7000
820.4,23264.9800
821.6,25436.2300
822.8,24310.8000
824.0,20234.9700
825.2,14929.9300
826.3,10528.7800
827.5,7280.1500
828.7,5040.3200
829.9,3586.6800
831.1,2607.4100
832.2,1993.7200
833.4,1507.8200
834.6,1204.6200
835.8,979.4400
837.0,821.3400
838.1,669.8400
839.3,567.9300
840.5,505.2500
841.7,439.8700
842.8,352.7700
844.0,329.3300
845.2,294.4800
846.4,255.3000
847.5,213.4200
848.7,184.0600
849.9,164.4800
851.1,142.7400
852.2,128.6100
853.4,107.9800
854.6,96.0300
855.8,76.5000
856.9,65.1100
858.1,56.4400
859.3,37.4700
860.5,13.3700
861.6,13.3200
862.8,21.0300
864.0,10.8300
865.1,9.3200
866.3,1.7900
867.5,12.2300
868.6,0.0000
869.8,0.0000
871.0,1.8200
872.2,0.0000
873.3,0.0000
874.5,0.0000
875.7,0.0000
876.8,0.0000
878.0,0.0000
879.2,0.0000
880.3,0.0000
881.5,0.0400
882.7,0.0000
883.8,0.0000
885.0,0.0000
886.2,0.0000
887.3,0.0000
888.5,20.0100
889.7,10.4100
890.8,12.1400
892.0,22.0500
893.2,26.5600
894.3,34.8400
895.5,33.9500
896.7,39.0000
897.8,40.2700
899.0,49.6200
900.1,69.7600
901.3,74.8000
902.5,105.7100
903.6,104.8200
904.8,120.0900
906.0,122.4300
907.1,167.8700
908.3,155.6600
909.4,204.8500
910.6,220.6500
911.8,266.0500
912.9,286.6800
914.1,333.6800
915.2,388.2100
916.4,423.8900
917.6,502.0800
918.7,561.9500
919.9,585.7700
921.0,649.3800
922.2,684.4800
923.4,693.7600
924.5,732.0700
925.7,760.1600
926.8,779.1100
928.0,877.6200
929.1,971.2800
930.3,1105.2300
931.4,1257.4300
932.6,1385.4300
933.8,1533.8200
934.9,1632.7500
936.1,1742.9500
937.2,1848.3000
938.4,1852.6400
939.5,1853.7600
940.7,1789.3600
941.8,1730.3500
943.0,1710.0200
944.1,1740.7000
945.3,1759.0200
946.4,1875.0600
947.6,2032.4200
948.7,2237.5300
949.9,2490.9200
951.0,2810.2900
952.2,3109.7700
953.3,3359.3000
954.5,3644.7500
955.6,3695.7000
956.8,3570.6800
957.9,3377.5300
959.1,3010.0800
960.2,2609.9500
961.4,2161.0600
962.5,1806.6200
963.7,1459.7400
964.8,1170.8100
966.0,962.9000
967.1,795.7600
968.3,693.5300
969.4,583.2600
970.5,537.8800
971.7,451.7600
972.8,392.4600
974.0,354.6000
975.1,334.9700
976.3,277.8300
977.4,239.4500
978.6,238.5900
979.7,224.3400
980.9,192.4000
982.0,180.2900
983.1,154.7900
984.3,131.9600
985.4,137.0100
986.6,116.8700
987.7,107.9800
988.8,91.0600
990.0,80.5700
991.1,62.5800
992.3,54.2400
993.4,54.4600
994.5,33.8000
995.7,25.4500
996.8,17.3300
998.0,34.2100
999.1,20.5500
1000.2,9.5700
1001.4,2.8300
1002.5,25.1700
1003.6,22.3300
1004.8,26.4600
1005.9,42.9100
1007.0,23.4700
1008.2,0.0000
1009.3,5.4300
1010.5,0.4100
1011.6,0.0000
1012.7,0.0000
1013.9,0.0000
1015.0,0.0000
1016.1,0.0000
1017.3,0.0800
1018.4,0.1700
1019.5,0.0000
1020.7,0.0000
1021.8,0.0000
1022.9,0.0000
1024.1,0.0000
1025.2,0.0000
1026.3,0.0000
1027.5,0.0000
1028.6,0.0000
1029.7,0.0000
1030.8,1.7100
1032.0,1.7600
1033.1,0.0000
1034.2,9.8700
1035.4,0.0000
1036.5,0.0000
1037.6,0.0000
1038.7,0.0000
1039.9,0.0000
1041.0,0.0000
1042.1,0.0000
1043.2,0.0000
1044.4,0.0000
1045.5,0.0000
1046.6,0.0000
1047.8,0.0000
1048.9,0.0000
1050.0,0.0000
1051.1,0.0000
1052.2,0.0000
1053.4,0.7200
1054.5,0.0000
1055.6,0.3300
1056.8,0.0000
1057.9,6.6100
1059.0,0.0000
1060.1,0.0000
1061.2,4.5100
1062.4,16.3000
1063.5,11.4400
1064.6,18.4400
1065.7,15.7800
1066.8,28.4100
1068.0,26.0100
1069.1,49.4000
1070.2,30.3400
1071.3,46.1200
1072.4,62.9800
1073.6,64.2600
1074.7,85.9600
1075.8,82.9400
1076.9,102.5000
1078.0,120.9800
1079.2,129.8000
1080.3,139.1500
1081.4,168.9400
1082.5,181.0000
1083.6,212.4200
1084.7,226.0900
1085.8,254.8300
1087.0,269.0500
1088.1,296.7300
1089.2,329.2700
1090.3,348.8900
1091.4,379.8200
1092.5,440.3700
1093.6,471.8700
1094.8,522.2200
1095.9,597.3600
1097.0,652.0500
1098.1,738.0100
1099.2,806.2100
1100.3,864.1900
1101.4,949.6700
1102.5,1029.2600
1103.6,1118.0300
1104.8,1210.0600
1105.9,1319.3800
1107.0,1376.9500
1108.1,1475.0000
1109.2,1595.2000
1110.3,1612.3700
1111.4,1665.7100
1112.5,1713.6800
1113.6,1740.6000
1114.7,1764.3000
1115.8,1791.2500
1116.9,1755.5600
1118.0,1723.1000
1119.2,1741.4200
1120.3,1738.6700
1121.4,1702.9600
1122.5,1733.7300
1123.6,1782.3500
1124.7,1838.0200
1125.8,1942.9200
1126.9,2075.9900
1128.0,2208.5700
1129.1,2325.5100
1130.2,2470.0900
1131.3,2581.7100
1132.4,2690.6700
1133.5,2727.1100
1134.6,2754.3700
1135.7,2681.9700
1136.8,2608.4600
1137.9,2427.6500
1139.0,2223.4700
1140.1,2058.2400
1141.2,1840.3600
1142.3,1729.2300
1143.4,1572.5100
1144.5,1415.7200
1145.6,1286.5500
1146.7,1219.2000
1147.8,1170.8200
1148.9,1068.1300
1150.0,1044.1400
1151.1,999.5100
1152.2,985.8200
1153.3,970.5000
1154.4,986.1600
1155.5,973.0100
1156.6,1007.7000
1157.7,1036.9800
1158.8,1054.8400
1159.9,1119.5100
1161.0,1148.8300
1162.1,1224.9800
1163.2,1289.1800
1164.2,1319.1200
1165.3,1369.7600
1166.4,1379.0300
1167.5,1351.2500
1168.6,1359.4300
1169.7,1279.3000
1170.8,1168.6100
1171.9,1061.6800
1173.0,929.0600
1174.1,819.8500
1175.2,719.3200
1176.2,605.0900
1177.3,545.9700
1178.4,443.6600
1179.5,387.2000
1180.6,353.6700
1181.7,291.1500
1182.8,258.1200
1183.9,240.9400
1185.0,217.1800
1186.0,187.9500
1187.1,182.2300
1188.2,163.3700
1189.3,142.8600
1190.4,113.0300
1191.5,116.0500
1192.6,108.1200
1193.7,84.2900
1194.7,55.5100
1195.8,70.5900
1196.9,61.5400
1198.0,39.3200
1199.1,37.4000
1200.2,19.0100
1201.2,27.9500
1202.3,16.0300
1203.4,13.7000
1204.5,9.3100
1205.6,4.8400
1206.7,1.1600
1207.7,2.4900
1208.8,3.9500
1209.9,0.6500
1211.0,23.8100
1212.1,4.5800
1213.1,0.0000
1214.2,4.6200
1215.3,1.8800
1216.4,0.0000
1217.5,6.8100
1218.5,5.0200
1219.6,5.9900
1220.7,0.0000
1221.8,0.0000
1222.8,0.0000
1223.9,0.0000
1225.0,2.6500
1226.1,0.0000
1227.1,0.0000
1228.2,0.2300
1229.3,0.0000
1230.4,8.4200
1231.4,3.2500
1232.5,9.1500
1233.6,0.0000
1234.7,5.9800
1235.7,0.0000
1236.8,0.0000
1237.9,5.1800
1239.0,7.0800
1240.0,1.7700
1241.1,9.2200
1242.2,0.0000
1243.2,3.5300
1244.3,0.0000
1245.4,0.0000
1246.5,0.0000
1247.5,4.1100
1248.6,0.0000
1249.7,0.0000
1250.7,0.0000
1251.8,0.0000
1252.9,0.0000
1253.9,0.0000
1255.0,0.0000
1256.1,3.5200
1257.1,0.0000
1258.2,0.0000
1259.3,1.4000
1260.3,2.5900
1261.4,0.0000
1262.5,5.3800
1263.5,0.0000
1264.6,9.4000
1265.7,6.2400
1266.7,0.0000
1267.8,0.0000
1268.8,5.5100
1269.9,9.0700
1271.0,1.9800
1272.0,0.0000
1273.1,0.0000
1274.2,24.5700
1275.2,6.9600
1276.3,26.9800
1277.3,13.3000
1278.4,44.6000
1279.5,29.2300
1280.5,25.6800
1281.6,61.5400
1282.6,65.8900
1283.7,72.5000
1284.8,67.2800
1285.8,90.2500
1286.9,122.2800
1287.9,115.9600
1289.0,133.9200
1290.0,160.3600
1291.1,174.4000
1292.2,191.8500
1293.2,203.6700
1294.3,219.4500
1295.3,234.6900
1296.4,269.2000
1297.4,278.8100
1298.5,305.4400
1299.5,325.8600
1300.6,346.3000
1301.7,358.2600
1302.7,365.6800
1303.8,373.1200
1304.8,401.5900
1305.9,406.2200
1306.9,418.2500
1308.0,430.3000
1309.0,444.0600
1310.1,436.7900
1311.1,431.7900
1312.2,452.9900
1313.2,449.7200
1314.3,453.8600
1315.3,443.7400
1316.4,454.7400
1317.4,444.6300
1318.5,463.0700
1319.5,460.4000
1320.6,436.5700
1321.6,441.3200
1322.7,444.3700
1323.7,449.1400
1324.7,445.3400
1325.8,428.9300
1326.8,453.2100
1327.9,457.4400
1328.9,479.4700
1330.0,482.5900
1331.0,532.8000
1332.1,543.4200
1333.1,621.8900
1334.2,654.4300
1335.2,695.6300
1336.2,758.7500
1337.3,842.6700
1338.3,908.2400
1339.4,1024.5900
1340.4,1052.8300
1341.4,1167.6500
1342.5,1236.9800
1343.5,1274.0500
1344.6,1235.4600
1345.6,1180.0800
1346.7,1047.7400
1347.7,976.0300
1348.7,828.4300
1349.8,720.0700
1350.8,628.4100
1351.8,544.8000
1352.9,466.9000
1353.9,398.8000
1355.0,363.7400
1356.0,319.3500
1357.0,280.1500
1358.1,249.6400
1359.1,229.0000
1360.1,194.9600
1361.2,178.3600
1362.2,172.8100
1363.2,188.2500
1364.3,193.2200
1365.3,171.9400
1366.3,199.1000
1367.4,201.1700
1368.4,151.2500
1369.4,118.8200
1370.5,120.2900
1371.5,111.2300
1372.5,82.2600
1373.6,69.6700
1374.6,79.3200
1375.6,71.9700
1376.7,91.1700
1377.7,103.3500
1378.7,156.6500
1379.8,175.3400
1380.8,225.2100
1381.8,263.3600
1382.8,302.7300
1383.9,297.9700
1384.9,316.7700
1385.9,294.3200
1387.0,309.6000
1388.0,319.5800
1389.0,300.6300
1390.0,301.1600
1391.0,338.9400
1392.1,302.2200
1393.1,353.0600
1394.1,367.2300
1395.2,403.9300
1396.2,404.5100
1397.2,459.6600
1398.2,489.3500
1399.2,541.0300
1400.3,565.4500
1401.3,619.6100
1402.3,687.5100
1403.3,707.2900
1404.4,771.1400
1405.4,823.1500
1406.4,881.1800
1407.4,908.8600
1408.4,900.7600
1409.5,960.1200
1410.5,968.7700
1411.5,1010.9000
1412.5,1023.1800
1413.5,1024.0900
1414.6,1041.1800
1415.6,1027.1200
1416.6,1044.2300
1417.6,1040.9600
1418.6,1016.0700
1419.7,1054.2200
1420.7,1044.3300
1421.7,1038.6500
1422.7,1072.6500
1423.7,1069.3800
1424.7,1099.8300
1425.7,1091.1500
1426.8,1114.4100
1427.8,1142.5300
1428.8,1151.9600
1429.8,1211.5400
1430.8,1237.9500
1431.8,1240.1900
1432.8,1298.7200
1433.8,1284.6600
1434.9,1356.6100
1435.9,1451.6800
1436.9,1508.6500
1437.9,1541.4100
1438.9,1635.5600
1439.9,1761.4100
1440.9,1846.6800
1441.9,1969.7700
1443.0,2149.0300
1444.0,2368.7200
1445.0,2557.5800
1446.0,2798.5300
1447.0,3181.3600
1448.0,3651.3900
1449.0,4128.1200
1450.0,4591.3800
1451.0,5073.5700
1452.0,5444.3300
1453.0,5799.6300
1454.0,5764.9000
1455.0,5727.6800
1456.0,5471.9200
1457.0,5178.9900
1458.0,4848.8200
1459.0,4616.6200
1460.1,4269.0600
1461.1,3999.2600
1462.1,3779.6300
1463.1,3549.2500
1464.1,3324.7400
1465.1,3176.4800
1466.1,2968.7400
1467.1,2816.9700
1468.1,2717.5800
1469.1,2579.7000
1470.1,2435.4300
1471.1,2322.5900
1472.1,2157.5100
1473.1,1968.0100
1474.1,1828.5600
1475.1,1614.3700
1476.1,1477.6100
1477.1,1302.0900
1478.1,1194.2000
1479.1,1041.9400
1480.1,934.3500
1481.1,816.6400
1482.1,789.2800
1483.1,680.6800
1484.1,640.6900
1485.0,530.5900
1486.0,502.9600
1487.0,464.6400
1488.0,386.1600
1489.0,374.6700
1490.0,339.3200
1491.0,295.7500
1492.0,282.9200
1493.0,236.1000
1494.0,220.6900
1495.0,209.6500
1496.0,147.5600
1497.0,139.6100
1498.0,118.4000
1499.0,126.2000
1500.0,87.2500
1500.9,72.9000
1501.9,49.6700
1502.9,56.2200
1503.9,41.8600
1504.9,43.5400
1505.9,33.7800
1506.9,17.6500
1507.9,14.4800
1508.8,26.6600
1509.8,3.8500
1510.8,2.2100
1511.8,7.6800
1512.8,0.0000
1513.8,0.0000
1514.8,0.0000
1515.8,0.0000
1516.7,0.0000
1517.7,13.7300
1518.7,0.0000
1519.7,0.0000
1520.7,8.6900
1521.7,0.0000
1522.7,1.2400
1523.6,8.6300
1524.6,0.0000
1525.6,9.9000
1526.6,0.0000
1527.6,0.0000
1528.5,2.5800
1529.5,0.0000
1530.5,0.0000
1531.5,22.4300
1532.5,7.7600
1533.5,18.3100
1534.4,13.3200
1535.4,0.0000
1536.4,15.5300
1537.4,14.3000
1538.3,3.3200
1539.3,17.0200
1540.3,0.0000
1541.3,5.1700
1542.2,7.5800
1543.2,5.4300
1544.2,0.6500
1545.2,0.0000
1546.2,0.0000
1547.1,3.1400
1548.1,1.4900
1549.1,0.0000
1550.0,3.3800
1551.0,0.0000
1552.0,0.0000
1553.0,0.0000
1554.0,0.0000
1554.9,1.9100
1555.9,0.4200
1556.9,0.0000
1557.8,0.0000
1558.8,2.9200
1559.8,0.0000
1560.8,0.0000
1561.7,5.6600
1562.7,1.2900
1563.7,0.2300
1564.6,0.0000
1565.6,0.0000
1566.6,5.8100
1567.5,2.2500
1568.5,1.3500
1569.5,0.0000
1570.4,0.0000
1571.4,0.9500
1572.4,5.8600
1573.3,0.7600
1574.3,0.0000
1575.3,2.8700
1576.2,2.7300
1577.2,0.0000
1578.2,0.0000
1579.1,1.5300
1580.1,3.2900
1581.1,1.0200
1582.0,0.0000
1583.0,0.0000
1584.0,0.0000
1584.9,6.6700
1585.9,4.7700
1586.8,0.0000
1587.8,8.0400
1588.8,9.8400
1589.7,10.9800
1590.7,0.0000
1591.6,7.0000
1592.6,10.0200
1593.6,6.9400
1594.5,8.6100
1595.5,2.7900
1596.4,6.5000
1597.4,7.5000
1598.3,6.4400
1599.3,1.2900
1600.3,7.8100
1601.2,11.6000
1602.2,3.0800
1603.1,8.9300
1604.1,14.1000
1605.0,10.3700
1606.0,5.9400
1607.0,20.0500
1607.9,9.4300
1608.9,7.7400
1609.8,8.8000
1610.8,9.1800
1611.7,14.3800
1612.7,15.4500
1613.6,6.1500
1614.6,9.2900
1615.5,13.8200
1616.5,23.2100
1617.4,20.1300
1618.4,22.6000
1619.3,19.5100
1620.3,21.2800
1621.2,20.2700
1622.2,16.4700
1623.1,15.4600
1624.1,17.9300
1625.0,21.8000
1626.0,27.7800
1626.9,33.0700
1627.9,27.1600
1628.8,31.7500
1629.8,26.5300
1630.7,40.2600
1631.7,26.6000
1632.6,26.2900
1633.6,30.1900
1634.5,34.1100
1635.5,30.9700
1636.4,37.7200
1637.3,35.2900
1638.3,31.4400
1639.2,38.2000
1640.2,35.0500
1641.1,40.4100
1642.1,37.2600
1643.0,39.7900
1643.9,36.6300
1644.9,39.8700
1645.8,33.1500
1646.8,41.3800
1647.7,58.1800
1648.7,38.6100
1649.6,56.1500
1650.5,46.5500
1651.5,54.1100
1652.4,58.1100
1653.3,57.0900
1654.3,58.2200
1655.2,64.3800
1656.2,59.0400
1657.1,61.6100
1658.0,66.3500
1659.0,62.4500
1659.9,68.6400
1660.8,54.6100
1661.8,68.0400
1662.7,64.1200
1663.7,65.9800
1664.6,53.3500
1665.5,79.1600
1666.5,65.7900
1667.4,72.0200
1668.3,79.7200
1669.2,80.1600
1670.2,78.4000
1671.1,73.7200
1672.0,60.2700
1673.0,83.3500
1673.9,76.4700
1674.8,84.9500
1675.8,91.2500
1676.7,88.0200
1677.6,75.2400
1678.6,77.1400
1679.5,74.6300
1680.4,82.4200
1681.4,82.8500
1682.3,83.2800
1683.2,85.9300
1684.1,84.1500
1685.1,91.2500
1686.0,89.4700
1686.9,86.9400
1687.8,73.2800
1688.8,80.3900
1689.7,86.0200
1690.6,78.2700
1691.5,84.6600
1692.5,84.3500
1693.4,79.5600
1694.3,75.5100
1695.2,84.9100
1696.2,76.3600
1697.1,66.3000
1698.0,59.9700
1698.9,67.1300
1699.9,79.5700
1700.8,68.7200
1701.7,70.6400
1702.6,72.5700
1703.5,69.2200
1704.5,68.1300
1705.4,62.5100
1706.3,75.7700
1707.2,67.8700
1708.2,59.2000
1709.1,72.5000
1710.0,65.3300
1710.9,61.1800
1711.8,66.9200
1712.8,64.2900
1713.7,72.3200
1714.6,79.6100
1715.5,65.5300
1716.4,72.0600
1717.3,67.1200
1718.2,59.8800
1719.2,78.6800
1720.1,72.2000
1721.0,84.9100
1721.9,67.6600
1722.8,72.6900
1723.7,69.2600
1724.7,61.1900
1725.6,55.4300
1726.5,58.9200
1727.4,67.8300
1728.3,56.6300
1729.2,51.6100
1730.1,58.2200
1731.0,59.4000
1731.9,64.4700
1732.8,46.2000
1733.8,54.3800
1734.7,56.3400
1735.6,50.5000
1736.5,55.5800
1737.4,62.2400
1738.3,57.1700
1739.2,55.2200
1740.1,54.8300
1741.0,44.2400
1741.9,36.7700
1742.8,48.1600
1743.8,39.8900
1744.7,49.7400
1745.6,49.3400
1746.5,41.0400
1747.4,44.5900
1748.3,31.5200
1749.2,27.1400
1750.1,26.7200
1751.0,39.0000
1751.9,36.9900
1752.8,24.6400
1753.7,21.8200
1754.6,25.3700
1755.5,30.5300
1756.4,27.7100
1757.3,17.6800
1758.2,24.4400
1759.1,16.7900
1760.0,37.2000
1760.9,19.1100
1761.8,18.6600
1762.7,14.1900
1763.6,28.2400
1764.5,15.7100
1765.4,21.7100
1766.3,14.8000
1767.2,15.9600
1768.1,17.9300
1769.0,10.1800
1769.9,14.5900
1770.8,11.6900
1771.7,18.5500
1772.6,18.0900
1773.5,6.2200
1774.4,11.4500
1775.3,8.5300
1776.2,15.4200
1777.1,15.7700
1778.0,8.7500
1778.9,8.2700
1779.8,9.4400
1780.6,0.0000
1781.5,2.6700
1782.4,4.6100
1783.3,3.2500
1784.2,10.9700
1785.1,9.6200
1786.0,4.9500
1786.9,0.2800
1787.8,13.8400
1788.7,9.1700
1789.6,7.8200
1790.5,11.4600
1791.3,5.9400
1792.2,1.2500
1793.1,3.2200
1794.0,11.0300
1794.9,0.0000
1795.8,6.4900
1796.7,8.3200
1797.5,8.4800
1798.4,5.2900
1799.3,11.3300
1800.2,14.0200
1801.1,0.7100
1802.0,10.1300
1802.9,2.7000
1803.8,10.4600
1804.6,3.0100
1805.5,12.4800
1806.4,4.1700
1807.3,8.5700
1808.2,0.2300
1809.0,0.0000
1809.9,5.6000
1810.8,12.5200
1811.7,14.3400
1812.6,0.0000
1813.5,1.7300
1814.3,9.5400
1815.2,13.0700
1816.1,9.7400
1817.0,13.2800
1817.9,9.0900
1818.7,6.6100
1819.6,5.8500
1820.5,5.0900
1821.4,14.6900
1822.2,14.8000
1823.1,15.7800
1824.0,15.0200
1824.9,16.0000
1825.8,11.7600
1826.6,14.4800
1827.5,25.0400
1828.4,20.8000
1829.3,19.1700
1830.1,23.6600
1831.0,30.7700
1831.9,27.4000
1832.8,24.8900
1833.6,24.1400
1834.5,24.2600
1835.4,26.1400
1836.2,28.0200
1837.1,21.0900
1838.0,26.5100
1838.9,29.2800
1839.7,24.1000
1840.6,23.3300
1841.5,25.2300
1842.3,18.2500
1843.2,29.0200
1844.1,18.4700
1845.0,16.8100
1845.8,14.2400
1846.7,23.2800
1847.6,8.2100
1848.4,23.5200
1849.3,20.9500
1850.2,11.2000
1851.0,22.0800
1851.9,24.0000
1852.8,22.3200
1853.6,18.8400
1854.5,21.6600
1855.4,23.5800
1856.2,17.3700
1857.1,18.3900
1858.0,20.3200
1858.8,24.0600
1859.7,16.9200
1860.5,7.9300
1861.4,16.2300
1862.3,23.6400
1863.1,14.6300
1864.0,17.4800
1864.9,13.9300
1865.7,15.8800
1866.6,15.9900
1867.4,17.9300
1868.3,25.4000
1869.2,20.9200
1870.0,17.3500
1870.9,18.3900
1871.7,22.2000
1872.6,20.4700
1873.5,21.5100
1874.3,24.4100
1875.2,20.8200
1876.0,21.8600
1876.9,21.9800
1877.7,27.6900
1878.6,28.7400
1879.5,14.8700
1880.3,26.1900
1881.2,23.5100
1882.0,27.3800
1882.9,19.0700
1883.7,22.9400
1884.6,18.3600
1885.4,23.1800
1886.3,20.4700
1887.2,5.4900
1888.0,11.2600
1888.8,25.5500
1889.7,16.2000
1890.6,22.0000
1891.4,14.5300
1892.3,6.0900
1893.1,16.6500
1894.0,18.6700
1894.8,13.0600
1895.7,12.2200
1896.5,25.7000
1897.4,15.3000
1898.2,28.8200
1899.1,28.9500
1899.9,24.2800
1900.8,24.4000
1901.6,21.6300
1902.5,17.8900
1903.3,19.9400
1904.1,27.7900
1905.0,25.0100
1905.8,29.9700
1906.7,17.5000
1907.5,15.6700
1908.4,19.6700
1909.2,22.7000
1910.1,15.0300
1910.9,22.9400
1911.8,20.1300
1912.6,8.5100
1913.4,15.4700
1914.3,12.6400
1915.1,26.4900
1916.0,13.8300
1916.8,14.9300
1917.7,11.1000
1918.5,11.2000
1919.3,15.2600
1920.2,14.3800
1921.0,9.5400
1921.8,19.5600
1922.7,13.7200
1923.5,18.7900
1924.4,16.9200
1925.2,20.0200
1926.0,22.1300
1926.9,4.2700
1927.7,7.3700
1928.6,14.4800
1929.4,5697.6700
1930.2,1360.9400
1931.1,1719.5700
1931.9,32.0300
1932.7,19.0600
1933.6,16.1500
1934.4,14.2400
1935.2,20.4200
1936.1,19.5200
1936.9,20.6500
1937.7,9.6000
1938.6,23.9300
1939.4,18.9700
1940.2,12.9700
1941.1,23.2800
1941.9,23.4000
1942.7,26.5900
1943.6,24.6600
1944.4,24.7900
1945.2,21.8300
1946.1,19.8900
1946.9,26.1800
1947.7,27.3400
1948.5,32.6200
1949.4,38.9600
1950.2,29.7900
1951.0,27.8400
1951.9,30.0400
1952.7,28.0900
1953.5,29.2600
1954.3,34.6000
1955.2,28.4700
1956.0,26.5100
1956.8,29.7700
1957.7,27.8100
1958.5,26.8900
1959.3,28.0600
1960.1,19.7800
1961.0,18.8500
1961.8,18.9600
1962.6,24.3500
1963.4,31.8700
1964.2,26.7100
1965.1,23.6600
1965.9,18.4800
1966.7,21.7800
1967.5,31.4600
1968.4,13.5000
1969.2,15.7400
1970.0,15.8500
1970.8,19.1600
1971.6,18.2100
1972.5,7.6100
1973.3,21.6600
1974.1,16.4000
1974.9,6.8400
1975.7,14.4700
1976.6,9.1900
1977.4,16.8500
1978.2,12.6400
1979.0,9.5000
1979.8,3.0900
1980.7,4.2700
1981.5,8.7200
1982.3,8.8200
1983.1,11.1000
1983.9,13.3900
1984.7,20.0500
1985.5,12.5100
1986.4,4.9400
1987.2,17.1100
1988.0,12.8200
1988.8,4.1300
1989.6,13.0400
1990.4,17.5600
1991.2,16.5600
1992.0,7.8300
1992.9,11.2500
1993.7,2.4900
1994.5,3.6900
1995.3,12.6800
1996.1,0.0000
1996.9,10.6300
1997.7,12.9400
1998.5,5.1900
1999.3,9.7400
2000.2,8.6900
2001.0,6.5200
2001.8,3.2200
2002.6,7.7800
2003.4,2.2200
2004.2,0.0300
2005.0,0.0900
2005.8,10.3300
2006.6,10.4100
2007.4,3.6900
2008.2,0.3600
2009.0,11.7900
2009.8,10.7400
2010.6,5.1200
2011.5,2.9100
2012.2,0.0000
2013.1,4.1700
2013.9,1.9300
2014.7,4.2700
2015.5,16.9600
2016.3,5.5200
2017.1,6.7200
2017.9,2.1600
2018.7,4.5200
2019.5,5.7200
2020.3,8.0900
2021.1,8.1500
2021.9,14.0100
2022.7,14.0800
2023.5,15.3000
2024.3,8.3700
2025.1,18.9400
2025.9,4.9700
2026.7,8.5400
2027.5,7.4200
2028.3,14.5200
2029.1,9.8800
2029.9,0.5200
2030.7,4.1000
2031.5,8.8700
2032.2,17.2100
2033.0,8.9900
2033.8,12.6000
2034.6,24.5400
2035.4,9.1600
2036.2,19.9300
2037.0,17.6200
2037.8,14.1100
2038.6,29.7100
2039.4,11.8400
2040.2,20.2900
2041.0,23.9700
2041.8,24.0500
2042.6,22.9200
2043.4,33.8500
2044.2,30.3200
2045.0,29.2000
2045.7,20.8100
2046.5,18.4500
2047.3,28.2400
2048.1,27.1100
2048.9,24.7500
2049.7,33.3700
2050.5,34.6800
2051.3,28.6600
2052.1,28.7500
2052.8,19.0200
2053.6,24.0100
2054.4,21.6300
2055.2,29.0900
2056.0,29.1700
2056.8,24.3200
2057.6,39.2400
2058.3,30.6700
2059.1,40.6800
2059.9,34.5700
2060.7,38.4000
2061.5,36.0100
2062.3,29.8700
2063.1,26.2100
2063.8,33.8000
2064.6,45.1600
2065.4,31.4700
2066.2,25.2900
2067.0,37.9400
2067.8,38.0400
2068.5,36.8800
2069.3,40.7700
2070.1,30.7500
2070.9,40.9700
2071.7,41.0800
2072.4,33.5600
2073.2,45.1000
2074.0,37.5700
2074.8,45.3200
2075.6,42.8800
2076.3,42.9900
2077.1,39.2500
2077.9,38.0700
2078.7,51.0200
2079.4,40.8400
2080.2,52.5400
2081.0,48.7900
2081.8,48.9100
2082.6,41.2600
2083.3,40.0700
2084.1,51.8600
2084.9,35.0800
2085.7,41.6900
2086.4,47.0100
2087.2,30.1500
2088.0,26.3200
2088.7,52.5800
2089.5,48.7700
2090.3,29.2000
2091.1,29.2900
2091.8,30.7000
2092.6,28.1500
2093.4,25.6000
2094.1,28.3200
2094.9,19.1400
2095.7,33.8000
2096.4,23.2800
2097.2,31.3400
2098.0,35.4200
2098.8,20.8500
2099.5,19.5900
2100.3,26.3600
2101.1,34.4800
2101.8,31.8900
2102.6,26.6100
2103.4,25.3500
2104.1,33.5200
2104.9,36.3200
2105.7,32.3600
2106.4,28.4000
2107.2,40.6800
2108.0,25.8600
2108.7,30.0200
2109.5,34.2000
2110.3,31.5700
2111.0,45.3100
2111.8,35.8600
2112.6,35.9600
2113.3,29.2000
2114.1,26.5400
2114.8,32.1300
2115.6,29.4700
2116.4,24.0500
2117.1,39.3200
2117.9,24.2100
2118.7,40.9200
2119.4,39.6400
2120.2,35.5800
2120.9,32.9000
2121.7,35.7800
2122.4,28.9000
2123.2,35.9800
2124.0,29.0800
2124.7,30.5800
2125.5,19.4400
2126.2,20.9200
2127.0,16.7700
2127.8,28.1300
2128.5,23.9800
2129.3,5.6700
2130.0,8.5600
2130.8,21.4000
2131.5,7.2700
2132.3,13.0200
2133.0,10.2300
2133.8,14.5800
2134.6,3.2100
2135.3,20.4500
2136.1,9.0500
2136.8,11.9900
2137.6,10.6200
2138.3,2.0400
2139.1,10.7400
2139.8,10.8100
2140.6,13.7700
2141.3,3.6900
2142.1,11.0000
2142.8,3.8000
2143.6,6.7700
2144.3,8.2800
2145.1,17.1000
2145.8,9.8700
2146.6,0.0000
2147.3,17.3100
2148.1,5.6200
2148.8,8.6000
2149.6,0.0000
2150.3,14.5900
2151.1,1.3300
2151.8,7.2800
2152.6,10.2700
2153.3,10.3100
2154.1,14.8100
2154.8,1.4600
2155.5,5.9600
2156.3,10.4700
2157.0,3.0300
2157.8,13.5500
2158.5,12.0900
2159.3,7.6200
2160.0,4.6500
2160.8,4.6800
2161.5,4.7100
2162.2,10.7900
2163.0,6.2900
2163.7,7.8400
2164.5,13.9500
2165.2,3.3500
2165.9,1.8500
2166.7,7.9800
2167.4,15.6600
2168.2,5.0000
2168.9,11.1600
2169.6,1.9900
2170.4,0.0000
2171.1,8.1500
2171.9,5.0500
2172.6,8.1200
2173.3,9.6500
2174.1,11.1900
2174.8,15.8400
2175.6,11.1700
2176.3,12.7200
2177.0,6.4700
2177.8,11.1400
2178.5,9.5700
2179.2,15.8200
2180.0,4.8400
2180.7,20.5300
2181.4,17.3900
2182.2,7.9300
2182.9,4.7600
2183.6,3.1600
2184.4,4.7200
2185.1,20.5700
2185.8,0.0000
2186.6,7.8500
2187.3,9.4300
2188.0,20.5900
2188.8,14.1900
2189.5,20.5900
2190.2,22.2000
2190.9,27.0300
2191.7,15.7800
2192.4,27.0600
2193.1,12.5400
2193.9,23.8500
2194.6,28.7200
2195.3,15.7600
2196.1,19.0100
2196.8,23.8900
2197.5,30.4200
2198.2,36.9700
2199.0,19.0200
2199.7,28.8500
2200.4,10.8300
2201.2,12.4700
2201.9,25.6200
2202.6,19.0400
2203.3,14.1000
2204.1,25.6700
2204.8,24.0300
2205.5,12.4300
2206.2,24.0500
2206.9,30.7200
2207.7,17.4200
2208.4,10.7400
2209.1,22.4400
2209.8,14.0800
2210.6,15.7500
2211.3,24.1500
2212.0,14.0800
2212.7,14.0700
2213.4,10.7000
2214.2,12.3800
2214.9,24.2300
2215.6,14.0700
2216.3,17.4700
2217.0,27.6800
2217.8,26.0000
2218.5,22.6100
2219.2,17.4900
2219.9,10.6500
2220.6,26.0800
2221.3,19.2300
2222.1,27.8400
2222.8,29.5900
2223.5,10.6300
2224.2,19.2700
2224.9,17.5500
2225.7,19.2900
2226.4,22.7800
2227.1,10.6200
2227.8,5.3900
2228.5,26.3200
2229.2,15.8500
2229.9,12.3600
2230.7,15.8700
2231.4,21.1400
2232.1,0.0000
2232.8,26.2800
2233.5,4.9500
2234.2,33.0500
2234.9,18.7400
2235.6,32.7700
2236.3,25.5200
2237.1,25.3600
2237.8,21.6500
2238.5,35.7700
2239.2,17.7500
2239.9,30.1300
2240.6,35.3700
2241.3,46.0200
2242.0,24.3000
2242.7,24.1500
2243.4,29.4200
2244.1,22.0400
2244.8,30.9500
2245.6,47.1500
2246.3,43.4000
2247.0,37.8200
2247.7,35.8700
2248.4,28.4400
2249.1,41.1100
2249.8,37.3300
2250.5,20.6800
2251.2,33.4000
2251.9,57.2200
2252.6,47.9100
2253.3,60.7400
2254.0,47.7000
2254.7,66.1400
2255.4,36.3500
2256.1,69.7200
2256.8,65.9200
2257.5,62.1200
2258.2,47.0800
2258.9,61.9700
2259.6,69.3900
2260.3,61.8100
2261.0,46.6800
2261.7,65.4400
2262.4,48.3700
2263.1,67.1900
2263.8,63.3400
2264.5,57.5700
2265.2,59.4000
2265.9,49.8000
2266.6,45.8900
2267.3,59.1700
2268.0,49.5300
2268.7,70.5300
2269.4,72.3900
2270.1,53.1100
2270.8,56.8800
2271.5,62.5900
2272.2,74.1300
2272.9,66.3400
2273.6,74.0400
2274.3,60.3900
2275.0,70.0600
2275.7,66.1100
2276.3,60.1900
2277.1,50.3500
2277.7,56.1400
2278.4,67.8500
2279.1,59.9400
2279.8,77.6000
2280.5,73.6200
2281.2,57.7700
2281.9,63.6400
2282.6,51.6900
2283.3,51.6200
2284.0,53.5300
2284.7,85.3500
2285.3,67.3700
2286.0,65.3200
2286.7,67.2800
2287.4,59.2000
2288.1,61.1600
2288.8,73.1800
2289.5,61.0500
2290.2,50.8900
2290.8,60.9400
2291.5,62.9200
2292.2,83.1800
2292.9,66.8900
2293.6,85.1900
2294.3,60.6900
2295.0,91.3100
2295.6,79.0200
2296.3,66.6900
2297.0,83.1000
2297.7,76.9100
2298.4,64.5200
2299.1,45.8900
2299.8,62.3700
2300.4,68.5500
2301.1,72.6700
2301.8,64.3300
2302.5,70.5400
2303.2,51.7300
2303.8,55.8500
2304.5,57.9000
2305.2,38.9600
2305.9,43.0900
2306.6,68.2900
2307.2,40.8400
2307.9,42.8800
2308.6,36.4600
2309.3,27.9000
2310.0,19.3100
2310.6,25.5800
2311.3,51.0600
2312.0,57.4200
2312.7,29.5700
2313.3,33.7700
2314.0,29.4000
2314.7,9.9600
2315.4,18.4500
2316.1,26.9800
2316.7,37.6900
2317.4,20.3000
2318.1,22.3700
2318.8,26.6200
2319.4,37.4100
2320.1,22.0800
2320.8,4.5100
2321.4,19.7000
2322.1,28.3700
2322.8,19.5100
2323.5,41.4000
2324.1,52.3600
2324.8,39.0800
2325.5,45.6500
2326.2,47.8200
2326.8,52.2100
2327.5,29.9400
2328.2,25.4100
2328.8,32.0200
2329.5,45.3600
2330.2,52.0300
2330.8,40.7800
2331.5,47.4700
2332.2,45.1800
2332.8,47.3900
2333.5,38.3100
2334.2,20.1600
2334.8,33.6700
2335.5,17.7100
2336.2,26.7200
2336.8,40.3200
2337.5,37.9900
2338.2,5.9200
2338.8,42.4700
2339.5,1.1100
2340.2,7.8900
2340.8,12.4000
2341.5,5.3800
2342.2,21.4500
2342.8,14.4300
2343.5,12.0200
2344.2,4.9500
2344.8,0.1900
2345.5,0.0000
2346.2,13.5200
2346.8,19.9800
2347.5,0.6700
2348.1,0.0000
2348.8,1.7500
2349.5,12.8500
2350.1,19.2600
2350.8,0.0000
2351.4,8.4500
2352.1,17.2600
