Pixel,Wavelength,Wavenumber,Processed
0,810.44,400.00,5.32
1,810.50,401.00,12.86
2,810.57,402.00,12.33
3,810.64,403.00,11.95
4,810.70,404.00,28.88
5,810.77,405.00,20.90
6,810.83,406.00,22.15
7,810.90,407.00,36.60
8,810.96,408.00,22.65
9,811.03,409.00,5.17
10,811.10,410.00,24.65
11,811.16,411.00,17.02
12,811.23,412.00,24.27
13,811.29,413.00,30.89
14,811.36,414.00,32.97
15,811.42,415.00,23.43
16,811.49,416.00,18.79
17,811.56,417.00,35.57
18,811.62,418.00,43.39
19,811.69,419.00,19.76
20,811.75,420.00,31.02
21,811.82,421.00,29.63
22,811.89,422.00,32.94
23,811.95,423.00,12.43
24,812.02,424.00,19.69
25,812.08,425.00,1.99
26,812.15,426.00,0.00
27,812.22,427.00,2.13
28,812.28,428.00,0.00
29,812.35,429.00,0.00
30,812.41,430.00,6.66
31,812.48,431.00,0.00
32,812.55,432.00,5.05
33,812.61,433.00,8.86
34,812.68,434.00,18.89
35,812.74,435.00,0.00
36,812.81,436.00,32.21
37,812.88,437.00,4.10
38,812.94,438.00,23.93
39,813.01,439.00,0.00
40,813.07,440.00,10.71
41,813.14,441.00,7.13
42,813.21,442.00,2.52
43,813.27,443.00,0.00
44,813.34,444.00,0.00
45,813.40,445.00,0.00
46,813.47,446.00,1.67
47,813.54,447.00,0.00
48,813.60,448.00,2.06
49,813.67,449.00,1.34
50,813.74,450.00,8.53
51,813.80,451.00,3.54
52,813.87,452.00,21.83
53,813.93,453.00,15.84
54,814.00,454.00,22.80
55,814.07,455.00,0.00
56,814.13,456.00,15.47
57,814.20,457.00,34.78
58,814.27,458.00,37.77
59,814.33,459.00,8.58
60,814.40,460.00,13.55
61,814.46,461.00,28.22
62,814.53,462.00,17.45
63,814.60,463.00,11.61
64,814.66,464.00,12.28
65,814.73,465.00,13.67
66,814.80,466.00,13.12
67,814.86,467.00,18.79
68,814.93,468.00,34.06
69,815.00,469.00,21.38
70,815.06,470.00,31.83
71,815.13,471.00,19.36
72,815.20,472.00,15.67
73,815.26,473.00,16.77
74,815.33,474.00,21.52
75,815.39,475.00,5.19
76,815.46,476.00,6.75
77,815.53,477.00,8.51
78,815.59,478.00,10.66
79,815.66,479.00,2.46
80,815.73,480.00,5.35
81,815.79,481.00,3.59
82,815.86,482.00,9.74
83,815.93,483.00,6.48
84,815.99,484.00,19.00
85,816.06,485.00,5.92
86,816.13,486.00,35.27
87,816.19,487.00,14.15
88,816.26,488.00,43.04
89,816.33,489.00,32.01
90,816.39,490.00,34.56
91,816.46,491.00,17.14
92,816.53,492.00,16.03
93,816.59,493.00,19.84
94,816.66,494.00,25.51
95,816.73,495.00,4.33
96,816.79,496.00,17.91
97,816.86,497.00,6.08
98,816.93,498.00,22.62
99,816.99,499.00,11.14
100,817.06,500.00,25.87
101,817.13,501.00,11.49
102,817.19,502.00,29.13
103,817.26,503.00,7.92
104,817.33,504.00,28.76
105,817.39,505.00,22.22
106,817.46,506.00,19.99
107,817.53,507.00,17.83
108,817.59,508.00,9.77
109,817.66,509.00,11.44
110,817.73,510.00,15.68
111,817.80,511.00,5.98
112,817.86,512.00,11.88
113,817.93,513.00,13.95
114,818.00,514.00,19.29
115,818.06,515.00,15.86
116,818.13,516.00,41.15
117,818.20,517.00,34.41
118,818.26,518.00,50.25
119,818.33,519.00,19.28
120,818.40,520.00,5.54
121,818.46,521.00,28.70
122,818.53,522.00,21.23
123,818.60,523.00,5.91
124,818.67,524.00,6.98
125,818.73,525.00,11.91
126,818.80,526.00,7.39
127,818.87,527.00,0.00
128,818.93,528.00,0.00
129,819.00,529.00,6.66
130,819.07,530.00,6.65
131,819.14,531.00,0.00
132,819.20,532.00,17.38
133,819.27,533.00,9.50
134,819.34,534.00,27.33
135,819.40,535.00,12.88
136,819.47,536.00,5.98
137,819.54,537.00,8.11
138,819.60,538.00,10.28
139,819.67,539.00,7.49
140,819.74,540.00,13.15
141,819.81,541.00,24.76
142,819.87,542.00,21.68
143,819.94,543.00,13.43
144,820.01,544.00,14.87
145,820.08,545.00,28.48
146,820.14,546.00,29.70
147,820.21,547.00,29.34
148,820.28,548.00,63.26
149,820.34,549.00,36.43
150,820.41,550.00,71.26
151,820.48,551.00,60.33
152,820.55,552.00,52.62
153,820.61,553.00,38.84
154,820.68,554.00,30.78
155,820.75,555.00,19.93
156,820.82,556.00,25.65
157,820.88,557.00,36.45
158,820.95,558.00,27.64
159,821.02,559.00,15.14
160,821.09,560.00,19.65
161,821.15,561.00,31.22
162,821.22,562.00,50.76
163,821.29,563.00,15.16
164,821.36,564.00,56.39
165,821.42,565.00,44.85
166,821.49,566.00,60.94
167,821.56,567.00,27.53
168,821.63,568.00,40.61
169,821.69,569.00,19.83
170,821.76,570.00,14.04
171,821.83,571.00,8.57
172,821.90,572.00,2.96
173,821.96,573.00,12.59
174,822.03,574.00,10.79
175,822.10,575.00,0.00
176,822.17,576.00,11.99
177,822.23,577.00,19.67
178,822.30,578.00,23.96
179,822.37,579.00,14.38
180,822.44,580.00,42.82
181,822.50,581.00,34.29
182,822.57,582.00,49.95
183,822.64,583.00,27.37
184,822.71,584.00,44.21
185,822.77,585.00,42.52
186,822.84,586.00,36.07
187,822.91,587.00,23.45
188,822.98,588.00,20.23
189,823.05,589.00,43.84
190,823.11,590.00,32.56
191,823.18,591.00,31.96
192,823.25,592.00,39.66
193,823.32,593.00,50.32
194,823.38,594.00,56.44
195,823.45,595.00,61.69
196,823.52,596.00,85.64
197,823.59,597.00,75.14
198,823.66,598.00,65.48
199,823.72,599.00,57.94
200,823.79,600.00,53.00
201,823.86,601.00,42.05
202,823.93,602.00,37.43
203,823.99,603.00,30.49
204,824.06,604.00,27.92
205,824.13,605.00,46.89
206,824.20,606.00,40.34
207,824.27,607.00,22.88
208,824.33,608.00,27.87
209,824.40,609.00,48.31
210,824.47,610.00,57.02
211,824.54,611.00,62.26
212,824.61,612.00,87.89
213,824.67,613.00,69.30
214,824.74,614.00,87.01
215,824.81,615.00,64.52
216,824.88,616.00,64.49
217,824.95,617.00,62.98
218,825.01,618.00,49.21
219,825.08,619.00,28.90
220,825.15,620.00,22.43
221,825.22,621.00,34.27
222,825.29,622.00,27.27
223,825.35,623.00,14.62
224,825.42,624.00,23.50
225,825.49,625.00,21.79
226,825.56,626.00,24.40
227,825.63,627.00,25.10
228,825.70,628.00,42.62
229,825.76,629.00,21.57
230,825.83,630.00,44.01
231,825.90,631.00,23.46
232,825.97,632.00,31.53
233,826.04,633.00,23.28
234,826.10,634.00,19.39
235,826.17,635.00,19.66
236,826.24,636.00,20.88
237,826.31,637.00,27.99
238,826.38,638.00,14.85
239,826.45,639.00,27.14
240,826.51,640.00,11.18
241,826.58,641.00,29.65
242,826.65,642.00,35.32
243,826.72,643.00,45.34
244,826.79,644.00,70.85
245,826.86,645.00,51.63
246,826.92,646.00,76.18
247,826.99,647.00,64.21
248,827.06,648.00,56.80
249,827.13,649.00,61.72
250,827.20,650.00,43.69
251,827.27,651.00,39.65
252,827.34,652.00,24.42
253,827.40,653.00,36.91
254,827.47,654.00,23.42
255,827.54,655.00,26.79
256,827.61,656.00,8.43
257,827.68,657.00,18.44
258,827.75,658.00,25.29
259,827.81,659.00,26.94
260,827.88,660.00,36.20
261,827.95,661.00,29.70
262,828.02,662.00,55.37
263,828.09,663.00,24.96
264,828.16,664.00,43.97
265,828.23,665.00,31.72
266,828.29,666.00,33.31
267,828.36,667.00,15.24
268,828.43,668.00,18.45
269,828.50,669.00,28.98
270,828.57,670.00,22.41
271,828.64,671.00,9.53
272,828.71,672.00,5.10
273,828.78,673.00,7.98
274,828.84,674.00,17.81
275,828.91,675.00,23.80
276,828.98,676.00,42.70
277,829.05,677.00,20.12
278,829.12,678.00,55.13
279,829.19,679.00,32.26
280,829.26,680.00,33.79
281,829.32,681.00,38.86
282,829.39,682.00,20.69
283,829.46,683.00,17.64
284,829.53,684.00,27.17
285,829.60,685.00,16.62
286,829.67,686.00,16.28
287,829.74,687.00,1.81
288,829.81,688.00,7.86
289,829.88,689.00,8.81
290,829.94,690.00,17.51
291,830.01,691.00,21.17
292,830.08,692.00,37.11
293,830.15,693.00,11.07
294,830.22,694.00,37.14
295,830.29,695.00,17.59
296,830.36,696.00,26.40
297,830.43,697.00,28.65
298,830.50,698.00,9.97
299,830.56,699.00,28.21
300,830.63,700.00,23.89
301,830.70,701.00,28.14
302,830.77,702.00,30.66
303,830.84,703.00,0.00
304,830.91,704.00,18.57
305,830.98,705.00,23.43
306,831.05,706.00,31.69
307,831.12,707.00,30.06
308,831.19,708.00,44.61
309,831.26,709.00,22.87
310,831.32,710.00,34.65
311,831.39,711.00,11.91
312,831.46,712.00,10.29
313,831.53,713.00,18.69
314,831.60,714.00,4.60
315,831.67,715.00,11.41
316,831.74,716.00,11.84
317,831.81,717.00,18.67
318,831.88,718.00,15.20
319,831.95,719.00,1.05
320,832.02,720.00,0.00
321,832.09,721.00,35.78
322,832.15,722.00,33.39
323,832.22,723.00,50.55
324,832.29,724.00,82.05
325,832.36,725.00,47.62
326,832.43,726.00,66.30
327,832.50,727.00,26.96
328,832.57,728.00,0.39
329,832.64,729.00,15.01
330,832.71,730.00,2.57
331,832.78,731.00,0.53
332,832.85,732.00,3.98
333,832.92,733.00,3.32
334,832.99,734.00,2.42
335,833.06,735.00,0.00
336,833.13,736.00,0.00
337,833.19,737.00,4.29
338,833.26,738.00,6.95
339,833.33,739.00,0.00
340,833.40,740.00,38.09
341,833.47,741.00,19.03
342,833.54,742.00,66.67
343,833.61,743.00,0.00
344,833.68,744.00,12.41
345,833.75,745.00,13.14
346,833.82,746.00,6.07
347,833.89,747.00,0.00
348,833.96,748.00,0.00
349,834.03,749.00,1.92
350,834.10,750.00,0.04
351,834.17,751.00,0.00
352,834.24,752.00,0.00
353,834.31,753.00,0.30
354,834.38,754.00,1.50
355,834.45,755.00,0.00
356,834.52,756.00,8.17
357,834.59,757.00,4.99
358,834.65,758.00,22.23
359,834.72,759.00,11.13
360,834.79,760.00,21.68
361,834.86,761.00,22.96
362,834.93,762.00,16.45
363,835.00,763.00,24.56
364,835.07,764.00,16.14
365,835.14,765.00,48.51
366,835.21,766.00,28.79
367,835.28,767.00,27.45
368,835.35,768.00,24.64
369,835.42,769.00,36.15
370,835.49,770.00,28.78
371,835.56,771.00,21.64
372,835.63,772.00,57.49
373,835.70,773.00,25.72
374,835.77,774.00,47.66
375,835.84,775.00,33.10
376,835.91,776.00,26.50
377,835.98,777.00,18.39
378,836.05,778.00,12.36
379,836.12,779.00,10.70
380,836.19,780.00,6.02
381,836.26,781.00,14.77
382,836.33,782.00,8.23
383,836.40,783.00,5.53
384,836.47,784.00,1.10
385,836.54,785.00,9.12
386,836.61,786.00,13.90
387,836.68,787.00,10.71
388,836.75,788.00,25.42
389,836.82,789.00,12.58
390,836.89,790.00,32.83
391,836.96,791.00,20.94
392,837.03,792.00,34.11
393,837.10,793.00,21.95
394,837.17,794.00,22.47
395,837.24,795.00,29.34
396,837.31,796.00,16.59
397,837.38,797.00,27.20
398,837.45,798.00,34.41
399,837.52,799.00,14.63
400,837.59,800.00,16.67
401,837.66,801.00,22.31
402,837.73,802.00,30.54
403,837.80,803.00,24.05
404,837.87,804.00,40.06
405,837.94,805.00,29.29
406,838.01,806.00,51.97
407,838.08,807.00,37.06
408,838.15,808.00,39.57
409,838.22,809.00,45.17
410,838.29,810.00,31.94
411,838.36,811.00,27.81
412,838.43,812.00,21.28
413,838.50,813.00,18.74
414,838.57,814.00,22.47
415,838.64,815.00,12.62
416,838.72,816.00,3.06
417,838.79,817.00,8.93
418,838.86,818.00,10.00
419,838.93,819.00,8.61
420,839.00,820.00,15.16
421,839.07,821.00,5.21
422,839.14,822.00,18.39
423,839.21,823.00,15.21
424,839.28,824.00,25.73
425,839.35,825.00,33.35
426,839.42,826.00,39.50
427,839.49,827.00,64.21
428,839.56,828.00,43.95
429,839.63,829.00,49.26
430,839.70,830.00,43.65
431,839.77,831.00,77.86
432,839.84,832.00,40.13
433,839.91,833.00,37.47
434,839.98,834.00,55.98
435,840.05,835.00,28.55
436,840.12,836.00,53.76
437,840.19,837.00,24.38
438,840.27,838.00,32.18
439,840.34,839.00,22.14
440,840.41,840.00,20.14
441,840.48,841.00,9.83
442,840.55,842.00,11.34
443,840.62,843.00,2.12
444,840.69,844.00,1.57
445,840.76,845.00,0.46
446,840.83,846.00,0.66
447,840.90,847.00,0.00
448,840.97,848.00,0.00
449,841.04,849.00,0.00
450,841.11,850.00,0.00
451,841.18,851.00,0.00
452,841.26,852.00,0.00
453,841.33,853.00,0.00
454,841.40,854.00,0.03
455,841.47,855.00,0.00
456,841.54,856.00,0.00
457,841.61,857.00,0.00
458,841.68,858.00,0.15
459,841.75,859.00,0.00
460,841.82,860.00,0.00
461,841.89,861.00,5.18
462,841.96,862.00,5.93
463,842.03,863.00,0.00
464,842.11,864.00,5.69
465,842.18,865.00,0.67
466,842.25,866.00,16.10
467,842.32,867.00,0.00
468,842.39,868.00,17.87
469,842.46,869.00,3.67
470,842.53,870.00,8.39
471,842.60,871.00,2.14
472,842.67,872.00,20.95
473,842.74,873.00,8.09
474,842.82,874.00,20.52
475,842.89,875.00,22.18
476,842.96,876.00,33.66
477,843.03,877.00,48.20
478,843.10,878.00,43.66
479,843.17,879.00,68.75
480,843.24,880.00,23.58
481,843.31,881.00,49.09
482,843.38,882.00,41.43
483,843.45,883.00,37.75
484,843.53,884.00,23.72
485,843.60,885.00,13.38
486,843.67,886.00,13.84
487,843.74,887.00,0.00
488,843.81,888.00,7.77
489,843.88,889.00,0.00
490,843.95,890.00,0.73
491,844.02,891.00,0.00
492,844.10,892.00,0.42
493,844.17,893.00,0.02
494,844.24,894.00,0.00
495,844.31,895.00,0.00
496,844.38,896.00,0.00
497,844.45,897.00,0.75
498,844.52,898.00,3.81
499,844.59,899.00,0.00
500,844.67,900.00,0.00
501,844.74,901.00,5.55
502,844.81,902.00,10.01
503,844.88,903.00,0.00
504,844.95,904.00,6.20
505,845.02,905.00,0.00
506,845.09,906.00,4.06
507,845.17,907.00,0.00
508,845.24,908.00,0.00
509,845.31,909.00,5.80
510,845.38,910.00,0.54
511,845.45,911.00,6.41
512,845.52,912.00,11.94
513,845.59,913.00,22.56
514,845.67,914.00,21.88
515,845.74,915.00,20.97
516,845.81,916.00,41.10
517,845.88,917.00,47.90
518,845.95,918.00,70.28
519,846.02,919.00,53.26
520,846.10,920.00,56.75
521,846.17,921.00,45.76
522,846.24,922.00,77.83
523,846.31,923.00,7.75
524,846.38,924.00,7.04
525,846.45,925.00,33.52
526,846.53,926.00,30.64
527,846.60,927.00,28.16
528,846.67,928.00,17.83
529,846.74,929.00,19.31
530,846.81,930.00,20.46
531,846.88,931.00,26.57
532,846.96,932.00,37.63
533,847.03,933.00,33.99
534,847.10,934.00,47.00
535,847.17,935.00,47.16
536,847.24,936.00,6.93
537,847.31,937.00,42.37
538,847.39,938.00,69.76
539,847.46,939.00,46.80
540,847.53,940.00,46.85
541,847.60,941.00,0.69
542,847.67,942.00,31.13
543,847.75,943.00,7.55
544,847.82,944.00,9.55
545,847.89,945.00,4.34
546,847.96,946.00,11.95
547,848.03,947.00,5.27
548,848.10,948.00,7.45
549,848.18,949.00,5.10
550,848.25,950.00,8.96
551,848.32,951.00,5.45
552,848.39,952.00,10.88
553,848.46,953.00,24.83
554,848.54,954.00,38.26
555,848.61,955.00,41.55
556,848.68,956.00,90.47
557,848.75,957.00,126.13
558,848.82,958.00,181.27
559,848.90,959.00,245.37
560,848.97,960.00,286.80
561,849.04,961.00,301.76
562,849.11,962.00,374.49
563,849.18,963.00,433.44
564,849.26,964.00,486.21
565,849.33,965.00,500.85
566,849.40,966.00,469.03
567,849.47,967.00,466.92
568,849.55,968.00,448.55
569,849.62,969.00,434.38
570,849.69,970.00,400.29
571,849.76,971.00,420.60
572,849.83,972.00,389.93
573,849.91,973.00,376.80
574,849.98,974.00,382.76
575,850.05,975.00,416.70
576,850.12,976.00,449.30
577,850.20,977.00,450.74
578,850.27,978.00,487.37
579,850.34,979.00,568.59
580,850.41,980.00,571.04
581,850.48,981.00,627.47
582,850.56,982.00,683.40
583,850.63,983.00,752.29
584,850.70,984.00,831.85
585,850.77,985.00,898.57
586,850.85,986.00,960.84
587,850.92,987.00,1027.32
588,850.99,988.00,1095.11
589,851.06,989.00,1157.37
590,851.14,990.00,1244.06
591,851.21,991.00,1318.05
592,851.28,992.00,1381.98
593,851.35,993.00,1427.91
594,851.43,994.00,1567.56
595,851.50,995.00,1593.84
596,851.57,996.00,1694.87
597,851.64,997.00,1792.05
598,851.72,998.00,1884.27
599,851.79,999.00,2121.37
600,851.86,1000.00,2236.40
601,851.93,1001.00,2526.85
602,852.01,1002.00,2678.84
603,852.08,1003.00,2955.62
604,852.15,1004.00,3289.01
605,852.22,1005.00,3630.16
606,852.30,1006.00,3813.73
607,852.37,1007.00,4331.66
608,852.44,1008.00,4546.08
609,852.51,1009.00,5076.91
610,852.59,1010.00,5431.99
611,852.66,1011.00,5888.61
612,852.73,1012.00,6275.80
613,852.81,1013.00,6873.12
614,852.88,1014.00,7558.46
615,852.95,1015.00,8301.72
616,853.02,1016.00,9013.95
617,853.10,1017.00,9990.51
618,853.17,1018.00,10936.19
619,853.24,1019.00,12030.45
620,853.32,1020.00,13347.52
621,853.39,1021.00,14723.78
622,853.46,1022.00,16274.51
623,853.53,1023.00,17936.03
624,853.61,1024.00,19938.95
625,853.68,1025.00,21927.45
626,853.75,1026.00,23776.33
627,853.83,1027.00,25944.14
628,853.90,1028.00,27782.66
629,853.97,1029.00,29535.45
630,854.04,1030.00,31095.78
631,854.12,1031.00,32488.36
632,854.19,1032.00,33271.48
633,854.26,1033.00,33910.80
634,854.34,1034.00,34110.82
635,854.41,1035.00,33801.26
636,854.48,1036.00,33214.67
637,854.55,1037.00,32196.59
638,854.63,1038.00,30916.00
639,854.70,1039.00,29444.19
640,854.77,1040.00,27693.56
641,854.85,1041.00,25780.21
642,854.92,1042.00,24038.13
643,854.99,1043.00,21979.84
644,855.07,1044.00,20304.34
645,855.14,1045.00,18422.92
646,855.21,1046.00,16871.44
647,855.29,1047.00,15304.14
648,855.36,1048.00,13860.80
649,855.43,1049.00,12503.94
650,855.51,1050.00,11499.96
651,855.58,1051.00,10454.33
652,855.65,1052.00,9520.09
653,855.72,1053.00,8623.55
654,855.80,1054.00,8080.30
655,855.87,1055.00,7291.09
656,855.94,1056.00,6626.91
657,856.02,1057.00,6199.66
658,856.09,1058.00,5638.39
659,856.16,1059.00,5237.46
660,856.24,1060.00,4898.43
661,856.31,1061.00,4638.98
662,856.38,1062.00,4501.36
663,856.46,1063.00,4069.85
664,856.53,1064.00,3950.22
665,856.60,1065.00,3736.86
666,856.68,1066.00,3584.40
667,856.75,1067.00,3433.36
668,856.82,1068.00,3295.04
669,856.90,1069.00,3171.49
670,856.97,1070.00,3083.60
671,857.04,1071.00,3040.07
672,857.12,1072.00,2957.39
673,857.19,1073.00,2847.15
674,857.27,1074.00,2781.65
675,857.34,1075.00,2666.35
676,857.41,1076.00,2641.72
677,857.49,1077.00,2430.43
678,857.56,1078.00,2337.46
679,857.63,1079.00,2245.21
680,857.71,1080.00,2190.13
681,857.78,1081.00,2105.26
682,857.85,1082.00,2063.80
683,857.93,1083.00,2078.80
684,858.00,1084.00,1991.30
685,858.07,1085.00,2019.17
686,858.15,1086.00,2007.29
687,858.22,1087.00,2050.48
688,858.30,1088.00,2106.68
689,858.37,1089.00,2165.66
690,858.44,1090.00,2184.17
691,858.52,1091.00,2273.44
692,858.59,1092.00,2398.21
693,858.66,1093.00,2424.54
694,858.74,1094.00,2525.31
695,858.81,1095.00,2567.00
696,858.89,1096.00,2724.12
697,858.96,1097.00,2830.08
698,859.03,1098.00,2888.93
699,859.11,1099.00,2975.54
700,859.18,1100.00,3070.31
701,859.25,1101.00,3057.86
702,859.33,1102.00,3157.32
703,859.40,1103.00,3182.12
704,859.48,1104.00,3254.74
705,859.55,1105.00,3261.38
706,859.62,1106.00,3337.54
707,859.70,1107.00,3402.59
708,859.77,1108.00,3401.13
709,859.85,1109.00,3397.58
710,859.92,1110.00,3479.90
711,859.99,1111.00,3442.60
712,860.07,1112.00,3535.46
713,860.14,1113.00,3545.69
714,860.22,1114.00,3541.28
715,860.29,1115.00,3555.31
716,860.36,1116.00,3588.22
717,860.44,1117.00,3521.71
718,860.51,1118.00,3475.17
719,860.59,1119.00,3288.11
720,860.66,1120.00,3290.54
721,860.73,1121.00,3099.55
722,860.81,1122.00,3011.51
723,860.88,1123.00,2837.44
724,860.96,1124.00,2781.43
725,861.03,1125.00,2576.36
726,861.10,1126.00,2447.45
727,861.18,1127.00,2344.78
728,861.25,1128.00,2267.49
729,861.33,1129.00,2217.46
730,861.40,1130.00,2117.42
731,861.47,1131.00,2095.42
732,861.55,1132.00,2014.81
733,861.62,1133.00,2042.69
734,861.70,1134.00,1991.55
735,861.77,1135.00,1903.50
736,861.85,1136.00,1916.15
737,861.92,1137.00,1909.49
738,861.99,1138.00,1904.79
739,862.07,1139.00,1842.57
740,862.14,1140.00,1864.21
741,862.22,1141.00,1795.75
742,862.29,1142.00,1780.65
743,862.37,1143.00,1717.79
744,862.44,1144.00,1736.67
745,862.52,1145.00,1710.68
746,862.59,1146.00,1769.22
747,862.66,1147.00,1645.38
748,862.74,1148.00,1657.01
749,862.81,1149.00,1641.93
750,862.89,1150.00,1581.93
751,862.96,1151.00,1481.79
752,863.04,1152.00,1525.36
753,863.11,1153.00,1553.35
754,863.19,1154.00,1578.61
755,863.26,1155.00,1573.83
756,863.33,1156.00,1573.99
757,863.41,1157.00,1567.45
758,863.48,1158.00,1585.83
759,863.56,1159.00,1574.90
760,863.63,1160.00,1584.25
761,863.71,1161.00,1537.33
762,863.78,1162.00,1576.50
763,863.86,1163.00,1513.12
764,863.93,1164.00,1454.44
765,864.01,1165.00,1426.58
766,864.08,1166.00,1354.04
767,864.15,1167.00,1280.32
768,864.23,1168.00,1247.05
769,864.30,1169.00,1267.57
770,864.38,1170.00,1193.83
771,864.45,1171.00,1192.12
772,864.53,1172.00,1126.92
773,864.60,1173.00,1102.79
774,864.68,1174.00,1064.10
775,864.75,1175.00,1022.26
776,864.83,1176.00,1002.65
777,864.90,1177.00,921.08
778,864.98,1178.00,928.49
779,865.05,1179.00,826.79
780,865.13,1180.00,791.97
781,865.20,1181.00,739.10
782,865.28,1182.00,699.01
783,865.35,1183.00,654.62
784,865.43,1184.00,624.07
785,865.50,1185.00,549.82
786,865.58,1186.00,563.74
787,865.65,1187.00,536.97
788,865.73,1188.00,515.02
789,865.80,1189.00,531.29
790,865.88,1190.00,469.22
791,865.95,1191.00,459.71
792,866.03,1192.00,416.79
793,866.10,1193.00,405.73
794,866.18,1194.00,439.38
795,866.25,1195.00,342.98
796,866.33,1196.00,356.66
797,866.40,1197.00,337.94
798,866.48,1198.00,279.29
799,866.55,1199.00,270.22
800,866.63,1200.00,245.47
801,866.70,1201.00,152.17
802,866.78,1202.00,211.52
803,866.85,1203.00,180.19
804,866.93,1204.00,166.05
805,867.00,1205.00,189.75
806,867.08,1206.00,156.72
807,867.15,1207.00,169.83
808,867.23,1208.00,163.34
809,867.30,1209.00,153.17
810,867.38,1210.00,197.70
811,867.45,1211.00,137.90
812,867.53,1212.00,137.68
813,867.60,1213.00,138.30
814,867.68,1214.00,114.54
815,867.75,1215.00,133.43
816,867.83,1216.00,103.35
817,867.90,1217.00,25.43
818,867.98,1218.00,49.06
819,868.06,1219.00,42.02
820,868.13,1220.00,14.12
821,868.21,1221.00,25.05
822,868.28,1222.00,31.91
823,868.36,1223.00,27.81
824,868.43,1224.00,72.32
825,868.51,1225.00,38.44
826,868.58,1226.00,63.25
827,868.66,1227.00,36.98
828,868.73,1228.00,41.16
829,868.81,1229.00,39.32
830,868.89,1230.00,49.97
831,868.96,1231.00,45.35
832,869.04,1232.00,34.31
833,869.11,1233.00,7.04
834,869.19,1234.00,8.65
835,869.26,1235.00,7.90
836,869.34,1236.00,6.09
837,869.41,1237.00,5.67
838,869.49,1238.00,8.98
839,869.57,1239.00,0.00
840,869.64,1240.00,4.89
841,869.72,1241.00,0.65
842,869.79,1242.00,9.73
843,869.87,1243.00,6.09
844,869.94,1244.00,5.55
845,870.02,1245.00,6.02
846,870.09,1246.00,6.86
847,870.17,1247.00,1.08
848,870.25,1248.00,12.61
849,870.32,1249.00,17.00
850,870.40,1250.00,37.81
851,870.47,1251.00,19.72
852,870.55,1252.00,20.62
853,870.63,1253.00,32.20
854,870.70,1254.00,43.52
855,870.78,1255.00,0.00
856,870.85,1256.00,35.80
857,870.93,1257.00,16.17
858,871.00,1258.00,45.12
859,871.08,1259.00,16.91
860,871.16,1260.00,2.14
861,871.23,1261.00,6.49
862,871.31,1262.00,14.87
863,871.38,1263.00,9.72
864,871.46,1264.00,16.13
865,871.54,1265.00,18.92
866,871.61,1266.00,43.19
867,871.69,1267.00,11.57
868,871.76,1268.00,32.27
869,871.84,1269.00,27.22
870,871.92,1270.00,46.60
871,871.99,1271.00,0.00
872,872.07,1272.00,37.66
873,872.14,1273.00,26.34
874,872.22,1274.00,44.97
875,872.30,1275.00,25.46
876,872.37,1276.00,8.30
877,872.45,1277.00,22.41
878,872.52,1278.00,25.38
879,872.60,1279.00,38.29
880,872.68,1280.00,37.60
881,872.75,1281.00,46.34
882,872.83,1282.00,59.82
883,872.91,1283.00,51.99
884,872.98,1284.00,64.35
885,873.06,1285.00,77.66
886,873.13,1286.00,82.47
887,873.21,1287.00,68.18
888,873.29,1288.00,73.11
889,873.36,1289.00,71.98
890,873.44,1290.00,96.50
891,873.52,1291.00,90.53
892,873.59,1292.00,66.50
893,873.67,1293.00,67.78
894,873.74,1294.00,67.33
895,873.82,1295.00,87.16
896,873.90,1296.00,65.13
897,873.97,1297.00,76.25
898,874.05,1298.00,95.87
899,874.13,1299.00,91.50
900,874.20,1300.00,95.93
901,874.28,1301.00,96.05
902,874.36,1302.00,118.28
903,874.43,1303.00,114.96
904,874.51,1304.00,144.23
905,874.58,1305.00,164.25
906,874.66,1306.00,219.66
907,874.74,1307.00,212.91
908,874.81,1308.00,251.76
909,874.89,1309.00,267.76
910,874.97,1310.00,330.11
911,875.04,1311.00,337.84
912,875.12,1312.00,337.11
913,875.20,1313.00,339.24
914,875.27,1314.00,373.40
915,875.35,1315.00,351.95
916,875.43,1316.00,336.64
917,875.50,1317.00,328.03
918,875.58,1318.00,313.55
919,875.66,1319.00,278.21
920,875.73,1320.00,273.60
921,875.81,1321.00,251.02
922,875.89,1322.00,274.38
923,875.96,1323.00,233.86
924,876.04,1324.00,257.43
925,876.12,1325.00,252.97
926,876.19,1326.00,278.80
927,876.27,1327.00,274.73
928,876.35,1328.00,315.82
929,876.42,1329.00,328.35
930,876.50,1330.00,360.01
931,876.58,1331.00,351.66
932,876.65,1332.00,395.36
933,876.73,1333.00,396.35
934,876.81,1334.00,396.29
935,876.89,1335.00,408.96
936,876.96,1336.00,443.68
937,877.04,1337.00,496.05
938,877.12,1338.00,514.90
939,877.19,1339.00,543.08
940,877.27,1340.00,622.43
941,877.35,1341.00,669.97
942,877.42,1342.00,651.02
943,877.50,1343.00,658.53
944,877.58,1344.00,710.61
945,877.65,1345.00,729.33
946,877.73,1346.00,745.33
947,877.81,1347.00,784.83
948,877.89,1348.00,837.37
949,877.96,1349.00,823.42
950,878.04,1350.00,837.37
951,878.12,1351.00,807.59
952,878.19,1352.00,885.26
953,878.27,1353.00,927.16
954,878.35,1354.00,941.23
955,878.43,1355.00,976.74
956,878.50,1356.00,1033.17
957,878.58,1357.00,1055.82
958,878.66,1358.00,1065.68
959,878.73,1359.00,1087.08
960,878.81,1360.00,1139.38
961,878.89,1361.00,1122.63
962,878.97,1362.00,1140.14
963,879.04,1363.00,1126.66
964,879.12,1364.00,1162.77
965,879.20,1365.00,1132.88
966,879.28,1366.00,1168.21
967,879.35,1367.00,1134.33
968,879.43,1368.00,1231.59
969,879.51,1369.00,1209.71
970,879.58,1370.00,1234.41
971,879.66,1371.00,1250.26
972,879.74,1372.00,1291.48
973,879.82,1373.00,1341.26
974,879.89,1374.00,1359.19
975,879.97,1375.00,1372.89
976,880.05,1376.00,1466.47
977,880.13,1377.00,1463.76
978,880.20,1378.00,1546.56
979,880.28,1379.00,1556.36
980,880.36,1380.00,1635.29
981,880.44,1381.00,1659.77
982,880.51,1382.00,1730.33
983,880.59,1383.00,1655.88
984,880.67,1384.00,1760.15
985,880.75,1385.00,1733.68
986,880.82,1386.00,1795.17
987,880.90,1387.00,1759.48
988,880.98,1388.00,1802.76
989,881.06,1389.00,1766.24
990,881.13,1390.00,1752.80
991,881.21,1391.00,1723.72
992,881.29,1392.00,1786.45
993,881.37,1393.00,1754.84
994,881.45,1394.00,1820.53
995,881.52,1395.00,1782.49
996,881.60,1396.00,1832.84
997,881.68,1397.00,1790.06
998,881.76,1398.00,1839.33
999,881.83,1399.00,1746.00
1000,881.91,1400.00,1868.57
1001,881.99,1401.00,1820.27
1002,882.07,1402.00,1886.46
1003,882.15,1403.00,1830.99
1004,882.22,1404.00,1873.95
1005,882.30,1405.00,1829.68
1006,882.38,1406.00,1909.93
1007,882.46,1407.00,1883.21
1008,882.53,1408.00,1964.70
1009,882.61,1409.00,1914.25
1010,882.69,1410.00,1974.90
1011,882.77,1411.00,1937.80
1012,882.85,1412.00,2016.59
1013,882.92,1413.00,1995.22
1014,883.00,1414.00,2103.64
1015,883.08,1415.00,2041.16
1016,883.16,1416.00,2166.35
1017,883.24,1417.00,2166.57
1018,883.31,1418.00,2255.42
1019,883.39,1419.00,2328.58
1020,883.47,1420.00,2405.51
1021,883.55,1421.00,2377.41
1022,883.63,1422.00,2526.96
1023,883.70,1423.00,2515.55
1024,883.78,1424.00,2553.71
1025,883.86,1425.00,2508.22
1026,883.94,1426.00,2534.06
1027,884.02,1427.00,2489.92
1028,884.10,1428.00,2521.21
1029,884.17,1429.00,2472.64
1030,884.25,1430.00,2513.69
1031,884.33,1431.00,2619.05
1032,884.41,1432.00,2605.86
1033,884.49,1433.00,2724.12
1034,884.56,1434.00,2779.34
1035,884.64,1435.00,2944.87
1036,884.72,1436.00,3116.93
1037,884.80,1437.00,3233.70
1038,884.88,1438.00,3532.67
1039,884.96,1439.00,3792.80
1040,885.03,1440.00,4093.01
1041,885.11,1441.00,4441.92
1042,885.19,1442.00,4738.82
1043,885.27,1443.00,5228.21
1044,885.35,1444.00,5643.62
1045,885.43,1445.00,6070.06
1046,885.50,1446.00,6711.28
1047,885.58,1447.00,7166.81
1048,885.66,1448.00,7583.31
1049,885.74,1449.00,8024.22
1050,885.82,1450.00,8337.30
1051,885.90,1451.00,8776.03
1052,885.98,1452.00,8936.91
1053,886.05,1453.00,9268.30
1054,886.13,1454.00,9279.97
1055,886.21,1455.00,9404.17
1056,886.29,1456.00,9294.50
1057,886.37,1457.00,9363.39
1058,886.45,1458.00,9314.69
1059,886.52,1459.00,9329.45
1060,886.60,1460.00,9045.22
1061,886.68,1461.00,9079.40
1062,886.76,1462.00,8958.67
1063,886.84,1463.00,8961.85
1064,886.92,1464.00,8768.94
1065,887.00,1465.00,8747.91
1066,887.08,1466.00,8574.17
1067,887.15,1467.00,8468.06
1068,887.23,1468.00,8375.81
1069,887.31,1469.00,8356.71
1070,887.39,1470.00,8143.24
1071,887.47,1471.00,8141.89
1072,887.55,1472.00,7811.67
1073,887.63,1473.00,7864.74
1074,887.71,1474.00,7608.32
1075,887.78,1475.00,7653.93
1076,887.86,1476.00,7392.36
1077,887.94,1477.00,7337.88
1078,888.02,1478.00,7306.12
1079,888.10,1479.00,7152.99
1080,888.18,1480.00,7144.92
1081,888.26,1481.00,7088.78
1082,888.34,1482.00,6968.60
1083,888.42,1483.00,6859.51
1084,888.49,1484.00,6640.53
1085,888.57,1485.00,6477.84
1086,888.65,1486.00,6268.34
1087,888.73,1487.00,6146.04
1088,888.81,1488.00,5998.41
1089,888.89,1489.00,5751.29
1090,888.97,1490.00,5486.29
1091,889.05,1491.00,5298.50
1092,889.13,1492.00,5002.42
1093,889.21,1493.00,4869.07
1094,889.28,1494.00,4618.26
1095,889.36,1495.00,4407.30
1096,889.44,1496.00,4271.77
1097,889.52,1497.00,4158.76
1098,889.60,1498.00,4080.78
1099,889.68,1499.00,3954.85
1100,889.76,1500.00,3823.95
1101,889.84,1501.00,3792.12
1102,889.92,1502.00,3692.19
1103,890.00,1503.00,3671.19
1104,890.08,1504.00,3595.08
1105,890.15,1505.00,3593.70
1106,890.23,1506.00,3591.17
1107,890.31,1507.00,3542.63
1108,890.39,1508.00,3483.94
1109,890.47,1509.00,3463.11
1110,890.55,1510.00,3409.45
1111,890.63,1511.00,3263.98
1112,890.71,1512.00,3310.48
1113,890.79,1513.00,3167.59
1114,890.87,1514.00,3109.49
1115,890.95,1515.00,3020.80
1116,891.03,1516.00,2976.34
1117,891.11,1517.00,2883.28
1118,891.19,1518.00,2793.21
1119,891.27,1519.00,2696.82
1120,891.35,1520.00,2617.77
1121,891.42,1521.00,2517.92
1122,891.50,1522.00,2441.81
1123,891.58,1523.00,2350.87
1124,891.66,1524.00,2252.17
1125,891.74,1525.00,2209.54
1126,891.82,1526.00,2231.67
1127,891.90,1527.00,2116.64
1128,891.98,1528.00,2071.31
1129,892.06,1529.00,2066.77
1130,892.14,1530.00,2094.71
1131,892.22,1531.00,2030.02
1132,892.30,1532.00,2044.82
1133,892.38,1533.00,2087.67
1134,892.46,1534.00,2067.95
1135,892.54,1535.00,1953.50
1136,892.62,1536.00,1954.64
1137,892.70,1537.00,1966.98
1138,892.78,1538.00,1996.10
1139,892.86,1539.00,1914.21
1140,892.94,1540.00,1929.48
1141,893.02,1541.00,1911.72
1142,893.10,1542.00,1887.54
1143,893.18,1543.00,1828.17
1144,893.26,1544.00,1840.08
1145,893.34,1545.00,1791.55
1146,893.42,1546.00,1805.00
1147,893.50,1547.00,1731.86
1148,893.58,1548.00,1719.01
1149,893.66,1549.00,1700.51
1150,893.73,1550.00,1684.83
1151,893.81,1551.00,1594.78
1152,893.89,1552.00,1610.30
1153,893.97,1553.00,1602.91
1154,894.05,1554.00,1561.05
1155,894.13,1555.00,1478.81
1156,894.21,1556.00,1436.70
1157,894.29,1557.00,1480.48
1158,894.37,1558.00,1446.34
1159,894.45,1559.00,1396.16
1160,894.53,1560.00,1424.04
1161,894.61,1561.00,1418.70
1162,894.69,1562.00,1419.66
1163,894.77,1563.00,1393.75
1164,894.85,1564.00,1403.69
1165,894.93,1565.00,1425.91
1166,895.01,1566.00,1471.93
1167,895.09,1567.00,1447.13
1168,895.18,1568.00,1486.50
1169,895.26,1569.00,1530.72
1170,895.34,1570.00,1579.93
1171,895.42,1571.00,1598.10
1172,895.50,1572.00,1588.10
1173,895.58,1573.00,1589.70
1174,895.66,1574.00,1571.70
1175,895.74,1575.00,1506.49
1176,895.82,1576.00,1467.00
1177,895.90,1577.00,1454.64
1178,895.98,1578.00,1376.44
1179,896.06,1579.00,1301.32
1180,896.14,1580.00,1224.33
1181,896.22,1581.00,1176.60
1182,896.30,1582.00,1173.24
1183,896.38,1583.00,1124.27
1184,896.46,1584.00,1061.27
1185,896.54,1585.00,976.60
1186,896.62,1586.00,923.27
1187,896.70,1587.00,904.81
1188,896.78,1588.00,833.20
1189,896.86,1589.00,812.80
1190,896.94,1590.00,787.72
1191,897.02,1591.00,707.07
1192,897.10,1592.00,698.88
1193,897.18,1593.00,708.47
1194,897.26,1594.00,705.86
1195,897.34,1595.00,624.74
1196,897.42,1596.00,614.45
1197,897.50,1597.00,646.46
1198,897.59,1598.00,680.54
1199,897.67,1599.00,768.16
1200,897.75,1600.00,799.74
1201,897.83,1601.00,724.52
1202,897.91,1602.00,805.87
1203,897.99,1603.00,756.83
1204,898.07,1604.00,711.21
1205,898.15,1605.00,812.05
1206,898.23,1606.00,699.40
1207,898.31,1607.00,654.82
1208,898.39,1608.00,625.96
1209,898.47,1609.00,559.04
1210,898.55,1610.00,647.24
1211,898.63,1611.00,525.97
1212,898.71,1612.00,559.69
1213,898.80,1613.00,521.76
1214,898.88,1614.00,413.45
1215,898.96,1615.00,385.33
1216,899.04,1616.00,321.51
1217,899.12,1617.00,273.40
1218,899.20,1618.00,302.44
1219,899.28,1619.00,291.10
1220,899.36,1620.00,280.60
1221,899.44,1621.00,348.10
1222,899.52,1622.00,302.11
1223,899.60,1623.00,309.45
1224,899.69,1624.00,294.48
1225,899.77,1625.00,267.44
1226,899.85,1626.00,362.47
1227,899.93,1627.00,347.54
1228,900.01,1628.00,347.58
1229,900.09,1629.00,337.34
1230,900.17,1630.00,282.19
1231,900.25,1631.00,274.03
1232,900.33,1632.00,257.23
1233,900.41,1633.00,182.67
1234,900.50,1634.00,211.75
1235,900.58,1635.00,210.24
1236,900.66,1636.00,185.53
1237,900.74,1637.00,249.65
1238,900.82,1638.00,188.55
1239,900.90,1639.00,181.97
1240,900.98,1640.00,181.82
1241,901.06,1641.00,147.84
1242,901.14,1642.00,210.53
1243,901.23,1643.00,185.69
1244,901.31,1644.00,188.22
1245,901.39,1645.00,171.46
1246,901.47,1646.00,145.47
1247,901.55,1647.00,109.75
1248,901.63,1648.00,100.36
1249,901.71,1649.00,75.96
1250,901.79,1650.00,82.78
1251,901.88,1651.00,66.71
1252,901.96,1652.00,53.54
1253,902.04,1653.00,73.69
1254,902.12,1654.00,44.58
1255,902.20,1655.00,32.34
1256,902.28,1656.00,44.08
1257,902.36,1657.00,18.63
1258,902.45,1658.00,29.15
1259,902.53,1659.00,23.83
1260,902.61,1660.00,17.89
1261,902.69,1661.00,17.86
1262,902.77,1662.00,26.80
1263,902.85,1663.00,6.15
1264,902.93,1664.00,18.67
1265,903.02,1665.00,5.57
1266,903.10,1666.00,10.60
1267,903.18,1667.00,0.00
1268,903.26,1668.00,7.26
1269,903.34,1669.00,16.14
1270,903.42,1670.00,12.25
1271,903.51,1671.00,0.00
1272,903.59,1672.00,11.82
1273,903.67,1673.00,14.64
1274,903.75,1674.00,24.59
1275,903.83,1675.00,2.38
1276,903.91,1676.00,8.06
1277,904.00,1677.00,3.39
1278,904.08,1678.00,5.37
1279,904.16,1679.00,0.00
1280,904.24,1680.00,5.71
1281,904.32,1681.00,1.71
1282,904.40,1682.00,3.43
1283,904.49,1683.00,0.00
1284,904.57,1684.00,0.00
1285,904.65,1685.00,3.39
1286,904.73,1686.00,0.00
1287,904.81,1687.00,0.00
1288,904.90,1688.00,0.00
1289,904.98,1689.00,0.00
1290,905.06,1690.00,4.06
1291,905.14,1691.00,0.00
1292,905.22,1692.00,1.67
1293,905.31,1693.00,1.35
1294,905.39,1694.00,5.54
1295,905.47,1695.00,1.14
1296,905.55,1696.00,7.44
1297,905.63,1697.00,5.04
1298,905.72,1698.00,7.93
1299,905.80,1699.00,0.00
1300,905.88,1700.00,5.21
1301,905.96,1701.00,31.51
1302,906.04,1702.00,3.85
1303,906.13,1703.00,0.00
1304,906.21,1704.00,0.00
1305,906.29,1705.00,0.00
1306,906.37,1706.00,11.78
1307,906.45,1707.00,0.00
1308,906.54,1708.00,0.00
1309,906.62,1709.00,5.80
1310,906.70,1710.00,6.68
1311,906.78,1711.00,6.74
1312,906.87,1712.00,10.28
1313,906.95,1713.00,0.00
1314,907.03,1714.00,1.17
1315,907.11,1715.00,0.00
1316,907.19,1716.00,2.07
1317,907.28,1717.00,18.96
1318,907.36,1718.00,5.20
1319,907.44,1719.00,0.00
1320,907.52,1720.00,0.00
1321,907.61,1721.00,0.00
1322,907.69,1722.00,0.68
1323,907.77,1723.00,0.00
1324,907.85,1724.00,0.00
1325,907.94,1725.00,0.04
1326,908.02,1726.00,0.05
1327,908.10,1727.00,0.32
1328,908.18,1728.00,0.20
1329,908.27,1729.00,0.05
1330,908.35,1730.00,1.05
1331,908.43,1731.00,0.00
1332,908.51,1732.00,11.93
1333,908.60,1733.00,21.20
1334,908.68,1734.00,30.00
1335,908.76,1735.00,0.00
1336,908.84,1736.00,7.67
1337,908.93,1737.00,3.58
1338,909.01,1738.00,19.45
1339,909.09,1739.00,0.00
1340,909.17,1740.00,5.40
1341,909.26,1741.00,6.78
1342,909.34,1742.00,13.09
1343,909.42,1743.00,0.00
1344,909.50,1744.00,0.00
1345,909.59,1745.00,8.04
1346,909.67,1746.00,6.25
1347,909.75,1747.00,0.00
1348,909.84,1748.00,21.00
1349,909.92,1749.00,20.15
1350,910.00,1750.00,22.23
1351,910.08,1751.00,0.00
1352,910.17,1752.00,5.62
1353,910.25,1753.00,10.04
1354,910.33,1754.00,21.59
1355,910.42,1755.00,0.00
1356,910.50,1756.00,7.52
1357,910.58,1757.00,8.80
1358,910.66,1758.00,13.90
1359,910.75,1759.00,0.00
1360,910.83,1760.00,8.29
1361,910.91,1761.00,13.59
1362,911.00,1762.00,14.24
1363,911.08,1763.00,4.64
1364,911.16,1764.00,31.08
1365,911.24,1765.00,15.89
1366,911.33,1766.00,23.06
1367,911.41,1767.00,0.00
1368,911.49,1768.00,2.18
1369,911.58,1769.00,4.05
1370,911.66,1770.00,6.29
1371,911.74,1771.00,0.00
1372,911.83,1772.00,2.30
1373,911.91,1773.00,3.94
1374,911.99,1774.00,4.91
1375,912.08,1775.00,0.00
1376,912.16,1776.00,0.00
1377,912.24,1777.00,9.51
1378,912.33,1778.00,3.31
1379,912.41,1779.00,3.81
1380,912.49,1780.00,23.23
1381,912.58,1781.00,18.43
1382,912.66,1782.00,37.67
1383,912.74,1783.00,11.95
1384,912.83,1784.00,10.29
1385,912.91,1785.00,16.36
1386,912.99,1786.00,10.47
1387,913.08,1787.00,0.00
1388,913.16,1788.00,3.26
1389,913.24,1789.00,8.27
1390,913.33,1790.00,4.62
1391,913.41,1791.00,1.87
1392,913.49,1792.00,0.00
1393,913.58,1793.00,2.77
1394,913.66,1794.00,2.94
1395,913.74,1795.00,0.00
1396,913.83,1796.00,14.39
1397,913.91,1797.00,10.42
1398,913.99,1798.00,32.62
1399,914.08,1799.00,6.31
1400,914.16,1800.00,20.37
1401,914.24,1801.00,15.04
1402,914.33,1802.00,21.47
1403,914.41,1803.00,4.58
1404,914.49,1804.00,8.24
1405,914.58,1805.00,11.37
1406,914.66,1806.00,14.43
1407,914.75,1807.00,0.51
1408,914.83,1808.00,9.26
1409,914.91,1809.00,2.73
1410,915.00,1810.00,5.69
1411,915.08,1811.00,2.49
1412,915.16,1812.00,13.57
1413,915.25,1813.00,1.81
1414,915.33,1814.00,21.18
1415,915.42,1815.00,0.37
1416,915.50,1816.00,17.44
1417,915.58,1817.00,10.84
1418,915.67,1818.00,19.86
1419,915.75,1819.00,13.45
1420,915.83,1820.00,16.55
1421,915.92,1821.00,12.96
1422,916.00,1822.00,11.18
1423,916.09,1823.00,1.84
1424,916.17,1824.00,6.36
1425,916.25,1825.00,3.77
1426,916.34,1826.00,8.38
1427,916.42,1827.00,7.33
1428,916.51,1828.00,7.61
1429,916.59,1829.00,3.39
1430,916.67,1830.00,7.20
1431,916.76,1831.00,2.68
1432,916.84,1832.00,6.58
1433,916.93,1833.00,1.47
1434,917.01,1834.00,4.47
1435,917.09,1835.00,5.83
1436,917.18,1836.00,3.53
1437,917.26,1837.00,8.72
1438,917.35,1838.00,12.98
1439,917.43,1839.00,0.00
1440,917.52,1840.00,8.78
1441,917.60,1841.00,16.89
1442,917.68,1842.00,12.08
1443,917.77,1843.00,2.94
1444,917.85,1844.00,20.59
1445,917.94,1845.00,21.41
1446,918.02,1846.00,28.80
1447,918.11,1847.00,10.28
1448,918.19,1848.00,0.00
1449,918.27,1849.00,11.83
1450,918.36,1850.00,3.36
1451,918.44,1851.00,3.48
1452,918.53,1852.00,1.29
1453,918.61,1853.00,11.88
1454,918.70,1854.00,5.05
1455,918.78,1855.00,0.71
1456,918.86,1856.00,0.00
1457,918.95,1857.00,11.35
1458,919.03,1858.00,6.26
1459,919.12,1859.00,15.78
1460,919.20,1860.00,17.39
1461,919.29,1861.00,38.12
1462,919.37,1862.00,43.38
1463,919.46,1863.00,30.93
1464,919.54,1864.00,15.51
1465,919.62,1865.00,20.82
1466,919.71,1866.00,27.13
1467,919.79,1867.00,25.81
1468,919.88,1868.00,28.06
1469,919.96,1869.00,31.53
1470,920.05,1870.00,23.73
1471,920.13,1871.00,12.94
1472,920.22,1872.00,13.57
1473,920.30,1873.00,23.70
1474,920.39,1874.00,24.83
1475,920.47,1875.00,15.21
1476,920.56,1876.00,24.24
1477,920.64,1877.00,15.64
1478,920.73,1878.00,33.33
1479,920.81,1879.00,4.32
1480,920.90,1880.00,16.95
1481,920.98,1881.00,7.57
1482,921.06,1882.00,8.31
1483,921.15,1883.00,5.33
1484,921.23,1884.00,13.78
1485,921.32,1885.00,16.29
1486,921.40,1886.00,21.50
1487,921.49,1887.00,3.31
1488,921.57,1888.00,18.79
1489,921.66,1889.00,7.29
1490,921.74,1890.00,13.58
1491,921.83,1891.00,6.59
1492,921.91,1892.00,16.96
1493,922.00,1893.00,2.64
1494,922.08,1894.00,20.44
1495,922.17,1895.00,0.00
1496,922.25,1896.00,7.19
1497,922.34,1897.00,7.16
1498,922.42,1898.00,2.75
1499,922.51,1899.00,5.38
1500,922.59,1900.00,5.64
1501,922.68,1901.00,7.49
1502,922.76,1902.00,2.33
1503,922.85,1903.00,0.00
1504,922.93,1904.00,1.21
1505,923.02,1905.00,13.44
1506,923.11,1906.00,20.25
1507,923.19,1907.00,13.84
1508,923.28,1908.00,19.15
1509,923.36,1909.00,13.50
1510,923.45,1910.00,23.40
1511,923.53,1911.00,5.80
1512,923.62,1912.00,11.29
1513,923.70,1913.00,9.69
1514,923.79,1914.00,10.86
1515,923.87,1915.00,0.73
1516,923.96,1916.00,4.86
1517,924.04,1917.00,9.70
1518,924.13,1918.00,6.24
1519,924.21,1919.00,0.00
1520,924.30,1920.00,5.89
1521,924.39,1921.00,9.76
1522,924.47,1922.00,11.71
1523,924.56,1923.00,12.67
1524,924.64,1924.00,29.03
1525,924.73,1925.00,18.30
1526,924.81,1926.00,21.50
1527,924.90,1927.00,16.36
1528,924.98,1928.00,12.67
1529,925.07,1929.00,9.46
1530,925.16,1930.00,4.90
1531,925.24,1931.00,1.39
1532,925.33,1932.00,3.42
1533,925.41,1933.00,4.78
1534,925.50,1934.00,1.27
1535,925.58,1935.00,0.00
1536,925.67,1936.00,0.56
1537,925.75,1937.00,1.30
1538,925.84,1938.00,1.58
1539,925.93,1939.00,1.95
1540,926.01,1940.00,7.43
1541,926.10,1941.00,3.69
1542,926.18,1942.00,19.29
1543,926.27,1943.00,11.82
1544,926.35,1944.00,18.49
1545,926.44,1945.00,25.82
1546,926.53,1946.00,28.11
1547,926.61,1947.00,13.00
1548,926.70,1948.00,29.95
1549,926.78,1949.00,37.66
1550,926.87,1950.00,17.80
1551,926.96,1951.00,6.88
1552,927.04,1952.00,3.37
1553,927.13,1953.00,5.05
1554,927.21,1954.00,9.50
1555,927.30,1955.00,2.54
1556,927.39,1956.00,5.69
1557,927.47,1957.00,0.00
1558,927.56,1958.00,11.99
1559,927.64,1959.00,0.00
1560,927.73,1960.00,10.32
1561,927.82,1961.00,11.20
1562,927.90,1962.00,16.31
1563,927.99,1963.00,4.66
1564,928.07,1964.00,20.22
1565,928.16,1965.00,29.20
1566,928.25,1966.00,25.13
1567,928.33,1967.00,7.00
1568,928.42,1968.00,15.84
1569,928.51,1969.00,8.95
1570,928.59,1970.00,21.44
1571,928.68,1971.00,10.15
1572,928.76,1972.00,15.41
1573,928.85,1973.00,4.34
1574,928.94,1974.00,16.05
1575,929.02,1975.00,3.29
1576,929.11,1976.00,11.97
1577,929.20,1977.00,5.19
1578,929.28,1978.00,5.62
1579,929.37,1979.00,2.28
1580,929.45,1980.00,11.86
1581,929.54,1981.00,16.04
1582,929.63,1982.00,15.07
1583,929.71,1983.00,0.00
1584,929.80,1984.00,9.41
1585,929.89,1985.00,5.38
1586,929.97,1986.00,6.28
1587,930.06,1987.00,4.66
1588,930.15,1988.00,9.39
1589,930.23,1989.00,7.48
1590,930.32,1990.00,19.95
1591,930.41,1991.00,6.34
1592,930.49,1992.00,5.82
1593,930.58,1993.00,7.93
1594,930.67,1994.00,10.25
1595,930.75,1995.00,0.00
1596,930.84,1996.00,8.74
1597,930.93,1997.00,20.50
1598,931.01,1998.00,11.38
1599,931.10,1999.00,0.00
1600,931.19,2000.00,4.51
1601,931.27,2001.00,8.94
1602,931.36,2002.00,7.01
1603,931.45,2003.00,1.10
1604,931.53,2004.00,6.63
1605,931.62,2005.00,2.74
1606,931.71,2006.00,20.15
1607,931.79,2007.00,0.00
1608,931.88,2008.00,16.15
1609,931.97,2009.00,1.85
1610,932.05,2010.00,19.90
1611,932.14,2011.00,0.00
1612,932.23,2012.00,26.91
1613,932.31,2013.00,31.94
1614,932.40,2014.00,32.94
1615,932.49,2015.00,1.45
1616,932.57,2016.00,15.12
1617,932.66,2017.00,7.31
1618,932.75,2018.00,5.82
1619,932.84,2019.00,3.78
1620,932.92,2020.00,5.47
1621,933.01,2021.00,0.00
1622,933.10,2022.00,4.90
1623,933.18,2023.00,0.00
1624,933.27,2024.00,1.83
1625,933.36,2025.00,0.54
1626,933.45,2026.00,2.16
1627,933.53,2027.00,0.00
1628,933.62,2028.00,7.22
1629,933.71,2029.00,5.75
1630,933.79,2030.00,10.79
1631,933.88,2031.00,0.00
1632,933.97,2032.00,14.00
1633,934.06,2033.00,18.33
1634,934.14,2034.00,20.94
1635,934.23,2035.00,11.94
1636,934.32,2036.00,31.36
1637,934.40,2037.00,4.46
1638,934.49,2038.00,27.72
1639,934.58,2039.00,2.11
1640,934.67,2040.00,5.43
1641,934.75,2041.00,3.19
1642,934.84,2042.00,2.55
1643,934.93,2043.00,0.00
1644,935.02,2044.00,1.77
1645,935.10,2045.00,3.30
1646,935.19,2046.00,3.24
1647,935.28,2047.00,0.00
1648,935.37,2048.00,2.69
1649,935.45,2049.00,3.89
1650,935.54,2050.00,5.20
1651,935.63,2051.00,8.06
1652,935.72,2052.00,12.58
1653,935.80,2053.00,1.57
1654,935.89,2054.00,9.63
1655,935.98,2055.00,8.83
1656,936.07,2056.00,3.86
1657,936.15,2057.00,9.77
1658,936.24,2058.00,9.89
1659,936.33,2059.00,2.07
1660,936.42,2060.00,15.66
1661,936.51,2061.00,13.13
1662,936.59,2062.00,7.71
1663,936.68,2063.00,0.00
1664,936.77,2064.00,12.01
1665,936.86,2065.00,14.72
1666,936.94,2066.00,16.02
1667,937.03,2067.00,15.42
1668,937.12,2068.00,22.85
1669,937.21,2069.00,11.43
1670,937.30,2070.00,22.35
1671,937.38,2071.00,6.43
1672,937.47,2072.00,10.54
1673,937.56,2073.00,17.42
1674,937.65,2074.00,18.18
1675,937.73,2075.00,11.06
1676,937.82,2076.00,28.80
1677,937.91,2077.00,27.76
1678,938.00,2078.00,16.22
1679,938.09,2079.00,12.16
1680,938.17,2080.00,14.28
1681,938.26,2081.00,12.70
1682,938.35,2082.00,11.67
1683,938.44,2083.00,15.49
1684,938.53,2084.00,13.89
1685,938.61,2085.00,11.46
1686,938.70,2086.00,17.55
1687,938.79,2087.00,4.28
1688,938.88,2088.00,4.86
1689,938.97,2089.00,8.06
1690,939.06,2090.00,11.43
1691,939.14,2091.00,2.47
1692,939.23,2092.00,18.00
1693,939.32,2093.00,23.21
1694,939.41,2094.00,19.40
1695,939.50,2095.00,5.16
1696,939.58,2096.00,11.98
1697,939.67,2097.00,10.89
1698,939.76,2098.00,3.54
1699,939.85,2099.00,3.16
1700,939.94,2100.00,5.21
1701,940.03,2101.00,8.25
1702,940.11,2102.00,12.94
1703,940.20,2103.00,0.00
1704,940.29,2104.00,2.11
1705,940.38,2105.00,0.65
1706,940.47,2106.00,5.91
1707,940.56,2107.00,0.00
1708,940.65,2108.00,4.44
1709,940.73,2109.00,14.85
1710,940.82,2110.00,14.97
1711,940.91,2111.00,2.39
1712,941.00,2112.00,12.80
1713,941.09,2113.00,17.54
1714,941.18,2114.00,17.01
1715,941.27,2115.00,11.24
1716,941.35,2116.00,14.28
1717,941.44,2117.00,17.73
1718,941.53,2118.00,40.12
1719,941.62,2119.00,9.09
1720,941.71,2120.00,15.28
1721,941.80,2121.00,13.32
1722,941.89,2122.00,15.57
1723,941.97,2123.00,2.06
1724,942.06,2124.00,12.83
1725,942.15,2125.00,19.29
1726,942.24,2126.00,18.54
1727,942.33,2127.00,2.09
1728,942.42,2128.00,11.89
1729,942.51,2129.00,16.52
1730,942.60,2130.00,8.41
1731,942.68,2131.00,12.36
1732,942.77,2132.00,10.85
1733,942.86,2133.00,13.54
1734,942.95,2134.00,29.13
1735,943.04,2135.00,13.94
1736,943.13,2136.00,12.29
1737,943.22,2137.00,13.64
1738,943.31,2138.00,12.68
1739,943.40,2139.00,2.63
1740,943.49,2140.00,10.14
1741,943.57,2141.00,23.21
1742,943.66,2142.00,13.69
1743,943.75,2143.00,1.20
1744,943.84,2144.00,6.26
1745,943.93,2145.00,17.84
1746,944.02,2146.00,24.74
1747,944.11,2147.00,15.42
1748,944.20,2148.00,18.49
1749,944.29,2149.00,22.77
1750,944.38,2150.00,36.37
1751,944.47,2151.00,17.77
1752,944.55,2152.00,18.67
1753,944.64,2153.00,13.34
1754,944.73,2154.00,13.40
1755,944.82,2155.00,9.78
1756,944.91,2156.00,17.70
1757,945.00,2157.00,21.47
1758,945.09,2158.00,13.84
1759,945.18,2159.00,1.84
1760,945.27,2160.00,14.40
1761,945.36,2161.00,21.20
1762,945.45,2162.00,23.81
1763,945.54,2163.00,22.83
1764,945.63,2164.00,26.37
1765,945.72,2165.00,19.47
1766,945.81,2166.00,35.19
1767,945.89,2167.00,20.21
1768,945.98,2168.00,18.17
1769,946.07,2169.00,18.61
1770,946.16,2170.00,14.29
1771,946.25,2171.00,9.47
1772,946.34,2172.00,14.55
1773,946.43,2173.00,24.77
1774,946.52,2174.00,17.73
1775,946.61,2175.00,2.36
1776,946.70,2176.00,9.19
1777,946.79,2177.00,12.24
1778,946.88,2178.00,19.52
1779,946.97,2179.00,13.50
1780,947.06,2180.00,18.17
1781,947.15,2181.00,11.72
1782,947.24,2182.00,23.36
1783,947.33,2183.00,8.15
1784,947.42,2184.00,10.60
1785,947.51,2185.00,16.01
1786,947.60,2186.00,14.30
1787,947.69,2187.00,6.30
1788,947.78,2188.00,16.26
1789,947.87,2189.00,17.79
1790,947.96,2190.00,8.34
1791,948.05,2191.00,0.00
1792,948.14,2192.00,5.04
1793,948.23,2193.00,2.57
1794,948.32,2194.00,11.27
1795,948.41,2195.00,1.09
1796,948.50,2196.00,9.81
1797,948.59,2197.00,6.86
1798,948.68,2198.00,22.35
1799,948.77,2199.00,1.84
1800,948.86,2200.00,13.55
1801,948.95,2201.00,19.05
1802,949.04,2202.00,22.14
1803,949.13,2203.00,0.00
1804,949.22,2204.00,22.35
1805,949.31,2205.00,25.89
1806,949.40,2206.00,10.30
1807,949.49,2207.00,0.62
1808,949.58,2208.00,7.04
1809,949.67,2209.00,0.60
1810,949.76,2210.00,3.48
1811,949.85,2211.00,0.00
1812,949.94,2212.00,3.53
1813,950.03,2213.00,0.00
1814,950.12,2214.00,7.47
1815,950.21,2215.00,0.00
1816,950.30,2216.00,5.92
1817,950.39,2217.00,10.39
1818,950.48,2218.00,13.35
1819,950.57,2219.00,1.60
1820,950.66,2220.00,23.20
1821,950.75,2221.00,22.33
1822,950.84,2222.00,13.41
1823,950.93,2223.00,0.31
1824,951.02,2224.00,10.44
1825,951.11,2225.00,7.35
1826,951.20,2226.00,11.91
1827,951.29,2227.00,4.76
1828,951.38,2228.00,12.95
1829,951.47,2229.00,0.21
1830,951.57,2230.00,13.94
1831,951.66,2231.00,1.55
1832,951.75,2232.00,10.70
1833,951.84,2233.00,10.07
1834,951.93,2234.00,11.70
1835,952.02,2235.00,0.00
1836,952.11,2236.00,20.58
1837,952.20,2237.00,31.05
1838,952.29,2238.00,20.55
1839,952.38,2239.00,4.44
1840,952.47,2240.00,15.38
1841,952.56,2241.00,10.98
1842,952.65,2242.00,9.37
1843,952.74,2243.00,3.00
1844,952.83,2244.00,14.53
1845,952.93,2245.00,0.00
1846,953.02,2246.00,19.98
1847,953.11,2247.00,5.26
1848,953.20,2248.00,12.45
1849,953.29,2249.00,9.68
1850,953.38,2250.00,8.68
1851,953.47,2251.00,0.00
1852,953.56,2252.00,9.76
1853,953.65,2253.00,14.88
1854,953.74,2254.00,7.12
1855,953.83,2255.00,0.00
1856,953.93,2256.00,4.89
1857,954.02,2257.00,6.71
1858,954.11,2258.00,5.63
1859,954.20,2259.00,0.00
1860,954.29,2260.00,8.97
1861,954.38,2261.00,2.57
1862,954.47,2262.00,19.23
1863,954.56,2263.00,6.29
1864,954.65,2264.00,13.55
1865,954.75,2265.00,6.49
1866,954.84,2266.00,12.73
1867,954.93,2267.00,0.00
1868,955.02,2268.00,15.58
1869,955.11,2269.00,24.24
1870,955.20,2270.00,18.16
1871,955.29,2271.00,2.56
1872,955.38,2272.00,18.08
1873,955.47,2273.00,21.14
1874,955.57,2274.00,7.46
1875,955.66,2275.00,15.36
1876,955.75,2276.00,16.15
1877,955.84,2277.00,0.00
1878,955.93,2278.00,13.24
1879,956.02,2279.00,6.15
1880,956.11,2280.00,7.08
1881,956.21,2281.00,3.91
1882,956.30,2282.00,7.83
1883,956.39,2283.00,0.00
1884,956.48,2284.00,8.52
1885,956.57,2285.00,14.69
1886,956.66,2286.00,8.20
1887,956.75,2287.00,5.13
1888,956.85,2288.00,13.08
1889,956.94,2289.00,22.80
1890,957.03,2290.00,19.26
1891,957.12,2291.00,11.76
1892,957.21,2292.00,19.22
1893,957.30,2293.00,12.54
1894,957.40,2294.00,21.32
1895,957.49,2295.00,7.50
1896,957.58,2296.00,14.59
1897,957.67,2297.00,0.66
1898,957.76,2298.00,19.50
1899,957.85,2299.00,0.00
1900,957.95,2300.00,10.03
1901,958.04,2301.00,8.77
1902,958.13,2302.00,13.77
1903,958.22,2303.00,2.26
1904,958.31,2304.00,16.52
1905,958.41,2305.00,22.79
1906,958.50,2306.00,18.42
1907,958.59,2307.00,11.23
1908,958.68,2308.00,21.97
1909,958.77,2309.00,4.90
1910,958.86,2310.00,12.52
1911,958.96,2311.00,8.09
1912,959.05,2312.00,1.38
1913,959.14,2313.00,1.56
1914,959.23,2314.00,4.02
1915,959.32,2315.00,0.00
1916,959.42,2316.00,4.83
1917,959.51,2317.00,5.15
1918,959.60,2318.00,3.28
1919,959.69,2319.00,0.00
1920,959.79,2320.00,4.79
1921,959.88,2321.00,7.33
1922,959.97,2322.00,3.56
1923,960.06,2323.00,5.04
1924,960.15,2324.00,10.39
1925,960.25,2325.00,12.71
1926,960.34,2326.00,21.95
1927,960.43,2327.00,16.85
1928,960.52,2328.00,10.75
1929,960.61,2329.00,8.76
1930,960.71,2330.00,18.03
1931,960.80,2331.00,0.00
1932,960.89,2332.00,19.23
1933,960.98,2333.00,23.97
1934,961.08,2334.00,17.04
1935,961.17,2335.00,0.00
1936,961.26,2336.00,9.02
1937,961.35,2337.00,13.03
1938,961.45,2338.00,15.29
1939,961.54,2339.00,4.46
1940,961.63,2340.00,12.55
1941,961.72,2341.00,2.36
1942,961.82,2342.00,17.93
1943,961.91,2343.00,2.83
1944,962.00,2344.00,7.41
1945,962.09,2345.00,7.70
1946,962.19,2346.00,21.56
1947,962.28,2347.00,2.71
1948,962.37,2348.00,32.43
1949,962.46,2349.00,16.47
1950,962.56,2350.00,19.49
1951,962.65,2351.00,9.13
1952,962.74,2352.00,20.41
1953,962.83,2353.00,8.75
1954,962.93,2354.00,7.95
1955,963.02,2355.00,7.61
1956,963.11,2356.00,8.68
1957,963.21,2357.00,4.73
1958,963.30,2358.00,7.90
1959,963.39,2359.00,1.66
1960,963.48,2360.00,6.36
1961,963.58,2361.00,2.47
1962,963.67,2362.00,8.99
1963,963.76,2363.00,0.00
1964,963.86,2364.00,15.00
1965,963.95,2365.00,15.45
1966,964.04,2366.00,18.43
1967,964.13,2367.00,0.00
1968,964.23,2368.00,13.53
1969,964.32,2369.00,19.27
1970,964.41,2370.00,15.27
1971,964.51,2371.00,13.05
1972,964.60,2372.00,23.50
1973,964.69,2373.00,13.94
1974,964.79,2374.00,18.98
1975,964.88,2375.00,6.26
1976,964.97,2376.00,4.89
1977,965.06,2377.00,3.81
1978,965.16,2378.00,7.41
1979,965.25,2379.00,0.00
1980,965.34,2380.00,6.30
1981,965.44,2381.00,5.08
1982,965.53,2382.00,4.48
1983,965.62,2383.00,0.00
1984,965.72,2384.00,3.44
1985,965.81,2385.00,2.85
1986,965.90,2386.00,1.22
1987,966.00,2387.00,0.07
1988,966.09,2388.00,3.01
1989,966.18,2389.00,0.90
1990,966.28,2390.00,2.90
1991,966.37,2391.00,0.00
1992,966.46,2392.00,0.00
1993,966.56,2393.00,0.00
1994,966.65,2394.00,2.31
1995,966.74,2395.00,0.00
1996,966.84,2396.00,6.63
1997,966.93,2397.00,6.57
1998,967.02,2398.00,5.96
1999,967.12,2399.00,0.00
2000,967.21,2400.00,14.78
