Pixel,Wavelength,Wavenumber,Processed
0,810.44,400.00,86.54
1,810.50,401.00,86.13
2,810.57,402.00,83.46
3,810.64,403.00,80.76
4,810.70,404.00,80.15
5,810.77,405.00,77.60
6,810.83,406.00,78.83
7,810.90,407.00,80.17
8,810.96,408.00,87.41
9,811.03,409.00,102.17
10,811.10,410.00,112.92
11,811.16,411.00,134.33
12,811.23,412.00,155.06
13,811.29,413.00,160.42
14,811.36,414.00,177.26
15,811.42,415.00,183.15
16,811.49,416.00,188.70
17,811.56,417.00,204.15
18,811.62,418.00,195.79
19,811.69,419.00,189.44
20,811.75,420.00,184.06
21,811.82,421.00,172.73
22,811.89,422.00,173.87
23,811.95,423.00,186.25
24,812.02,424.00,150.30
25,812.08,425.00,147.82
26,812.15,426.00,139.37
27,812.22,427.00,133.82
28,812.28,428.00,128.08
29,812.35,429.00,127.34
30,812.41,430.00,133.52
31,812.48,431.00,128.31
32,812.55,432.00,134.30
33,812.61,433.00,139.90
34,812.68,434.00,158.63
35,812.74,435.00,167.34
36,812.81,436.00,177.88
37,812.88,437.00,194.55
38,812.94,438.00,202.38
39,813.01,439.00,209.28
40,813.07,440.00,204.34
41,813.14,441.00,199.88
42,813.21,442.00,192.97
43,813.27,443.00,193.51
44,813.34,444.00,172.19
45,813.40,445.00,162.12
46,813.47,446.00,154.15
47,813.54,447.00,137.98
48,813.60,448.00,130.40
49,813.67,449.00,124.46
50,813.74,450.00,121.81
51,813.80,451.00,120.07
52,813.87,452.00,117.30
53,813.93,453.00,123.81
54,814.00,454.00,126.94
55,814.07,455.00,127.24
56,814.13,456.00,132.69
57,814.20,457.00,129.62
58,814.27,458.00,137.96
59,814.33,459.00,136.73
60,814.40,460.00,134.56
61,814.46,461.00,135.54
62,814.53,462.00,135.14
63,814.60,463.00,129.66
64,814.66,464.00,124.43
65,814.73,465.00,116.84
66,814.80,466.00,112.30
67,814.86,467.00,109.74
68,814.93,468.00,97.19
69,815.00,469.00,97.68
70,815.06,470.00,94.88
71,815.13,471.00,97.77
72,815.20,472.00,94.90
73,815.26,473.00,95.68
74,815.33,474.00,100.25
75,815.39,475.00,106.69
76,815.46,476.00,107.93
77,815.53,477.00,116.42
78,815.59,478.00,125.04
79,815.66,479.00,131.07
80,815.73,480.00,132.87
81,815.79,481.00,135.03
82,815.86,482.00,140.07
83,815.93,483.00,136.79
84,815.99,484.00,135.81
85,816.06,485.00,129.44
86,816.13,486.00,126.46
87,816.19,487.00,113.23
88,816.26,488.00,107.10
89,816.33,489.00,96.28
90,816.39,490.00,93.10
91,816.46,491.00,82.00
92,816.53,492.00,80.64
93,816.59,493.00,74.15
94,816.66,494.00,73.84
95,816.73,495.00,67.44
96,816.79,496.00,66.56
97,816.86,497.00,63.86
98,816.93,498.00,64.36
99,816.99,499.00,62.48
100,817.06,500.00,60.11
101,817.13,501.00,65.85
102,817.19,502.00,65.29
103,817.26,503.00,65.62
104,817.33,504.00,67.96
105,817.39,505.00,64.68
106,817.46,506.00,75.98
107,817.53,507.00,79.94
108,817.59,508.00,77.74
109,817.66,509.00,85.14
110,817.73,510.00,93.58
111,817.80,511.00,86.08
112,817.86,512.00,97.80
113,817.93,513.00,95.84
114,818.00,514.00,104.82
115,818.06,515.00,91.03
116,818.13,516.00,90.75
117,818.20,517.00,90.16
118,818.26,518.00,84.17
119,818.33,519.00,77.85
120,818.40,520.00,71.14
121,818.46,521.00,68.87
122,818.53,522.00,66.09
123,818.60,523.00,62.26
124,818.67,524.00,59.11
125,818.73,525.00,63.04
126,818.80,526.00,61.51
127,818.87,527.00,61.72
128,818.93,528.00,62.19
129,819.00,529.00,71.06
130,819.07,530.00,73.56
131,819.14,531.00,77.40
132,819.20,532.00,75.44
133,819.27,533.00,72.25
134,819.34,534.00,67.58
135,819.40,535.00,77.14
136,819.47,536.00,55.82
137,819.54,537.00,70.61
138,819.60,538.00,55.77
139,819.67,539.00,58.69
140,819.74,540.00,50.24
141,819.81,541.00,38.47
142,819.87,542.00,33.32
143,819.94,543.00,25.18
144,820.01,544.00,14.88
145,820.08,545.00,14.87
146,820.14,546.00,14.15
147,820.21,547.00,13.20
148,820.28,548.00,12.54
149,820.34,549.00,13.38
150,820.41,550.00,14.43
151,820.48,551.00,14.60
152,820.55,552.00,17.51
153,820.61,553.00,17.73
154,820.68,554.00,20.65
155,820.75,555.00,21.78
156,820.82,556.00,23.11
157,820.88,557.00,28.51
158,820.95,558.00,24.23
159,821.02,559.00,32.31
160,821.09,560.00,25.14
161,821.15,561.00,28.05
162,821.22,562.00,24.37
163,821.29,563.00,24.04
164,821.36,564.00,17.60
165,821.42,565.00,18.21
166,821.49,566.00,15.66
167,821.56,567.00,15.56
168,821.63,568.00,10.72
169,821.69,569.00,11.79
170,821.76,570.00,10.09
171,821.83,571.00,8.60
172,821.90,572.00,12.08
173,821.96,573.00,10.42
174,822.03,574.00,10.41
175,822.10,575.00,12.43
176,822.17,576.00,10.08
177,822.23,577.00,12.30
178,822.30,578.00,12.28
179,822.37,579.00,11.13
180,822.44,580.00,8.87
181,822.50,581.00,8.50
182,822.57,582.00,8.24
183,822.64,583.00,6.28
184,822.71,584.00,9.11
185,822.77,585.00,5.82
186,822.84,586.00,7.69
187,822.91,587.00,6.58
188,822.98,588.00,4.28
189,823.05,589.00,2.34
190,823.11,590.00,6.40
191,823.18,591.00,5.65
192,823.25,592.00,2.44
193,823.32,593.00,2.00
194,823.38,594.00,2.47
195,823.45,595.00,4.95
196,823.52,596.00,2.30
197,823.59,597.00,1.82
198,823.66,598.00,3.69
199,823.72,599.00,4.84
200,823.79,600.00,1.80
201,823.86,601.00,5.08
202,823.93,602.00,6.94
203,823.99,603.00,1.47
204,824.06,604.00,8.75
205,824.13,605.00,7.69
206,824.20,606.00,13.00
207,824.27,607.00,11.44
208,824.33,608.00,11.15
209,824.40,609.00,8.35
210,824.47,610.00,9.06
211,824.54,611.00,7.23
212,824.61,612.00,7.90
213,824.67,613.00,10.82
214,824.74,614.00,10.61
215,824.81,615.00,8.67
216,824.88,616.00,7.95
217,824.95,617.00,7.32
218,825.01,618.00,6.97
219,825.08,619.00,8.98
220,825.15,620.00,5.55
221,825.22,621.00,5.62
222,825.29,622.00,8.48
223,825.35,623.00,8.93
224,825.42,624.00,8.86
225,825.49,625.00,9.17
226,825.56,626.00,6.97
227,825.63,627.00,6.33
228,825.70,628.00,7.30
229,825.76,629.00,9.51
230,825.83,630.00,10.47
231,825.90,631.00,9.79
232,825.97,632.00,9.36
233,826.04,633.00,8.40
234,826.10,634.00,9.04
235,826.17,635.00,8.16
236,826.24,636.00,12.22
237,826.31,637.00,11.55
238,826.38,638.00,14.61
239,826.45,639.00,16.21
240,826.51,640.00,15.07
241,826.58,641.00,14.46
242,826.65,642.00,14.88
243,826.72,643.00,13.14
244,826.79,644.00,14.94
245,826.86,645.00,14.05
246,826.92,646.00,11.81
247,826.99,647.00,10.10
248,827.06,648.00,8.80
249,827.13,649.00,9.75
250,827.20,650.00,9.65
251,827.27,651.00,9.84
252,827.34,652.00,10.84
253,827.40,653.00,11.85
254,827.47,654.00,12.14
255,827.54,655.00,10.82
256,827.61,656.00,16.24
257,827.68,657.00,16.76
258,827.75,658.00,15.45
259,827.81,659.00,16.06
260,827.88,660.00,21.51
261,827.95,661.00,17.17
262,828.02,662.00,15.55
263,828.09,663.00,12.52
264,828.16,664.00,9.06
265,828.23,665.00,8.22
266,828.29,666.00,7.92
267,828.36,667.00,5.16
268,828.43,668.00,7.94
269,828.50,669.00,6.36
270,828.57,670.00,5.94
271,828.64,671.00,6.48
272,828.71,672.00,5.91
273,828.78,673.00,6.46
274,828.84,674.00,7.14
275,828.91,675.00,9.72
276,828.98,676.00,11.51
277,829.05,677.00,13.40
278,829.12,678.00,11.38
279,829.19,679.00,13.50
280,829.26,680.00,12.31
281,829.32,681.00,14.33
282,829.39,682.00,13.13
283,829.46,683.00,14.34
284,829.53,684.00,20.60
285,829.60,685.00,16.88
286,829.67,686.00,21.45
287,829.74,687.00,21.11
288,829.81,688.00,20.58
289,829.88,689.00,20.43
290,829.94,690.00,20.31
291,830.01,691.00,19.73
292,830.08,692.00,15.51
293,830.15,693.00,14.12
294,830.22,694.00,10.95
295,830.29,695.00,12.56
296,830.36,696.00,9.55
297,830.43,697.00,10.74
298,830.50,698.00,9.53
299,830.56,699.00,10.10
300,830.63,700.00,8.48
301,830.70,701.00,9.26
302,830.77,702.00,9.06
303,830.84,703.00,9.12
304,830.91,704.00,7.72
305,830.98,705.00,8.06
306,831.05,706.00,9.76
307,831.12,707.00,10.77
308,831.19,708.00,14.28
309,831.26,709.00,13.35
310,831.32,710.00,14.55
311,831.39,711.00,18.26
312,831.46,712.00,21.82
313,831.53,713.00,25.36
314,831.60,714.00,31.81
315,831.67,715.00,36.38
316,831.74,716.00,34.29
317,831.81,717.00,34.81
318,831.88,718.00,32.14
319,831.95,719.00,29.80
320,832.02,720.00,31.29
321,832.09,721.00,27.10
322,832.15,722.00,20.75
323,832.22,723.00,23.55
324,832.29,724.00,18.79
325,832.36,725.00,20.16
326,832.43,726.00,18.07
327,832.50,727.00,18.09
328,832.57,728.00,24.86
329,832.64,729.00,34.97
330,832.71,730.00,42.55
331,832.78,731.00,55.37
332,832.85,732.00,69.10
333,832.92,733.00,92.34
334,832.99,734.00,98.46
335,833.06,735.00,129.60
336,833.13,736.00,121.87
337,833.19,737.00,140.28
338,833.26,738.00,129.39
339,833.33,739.00,133.07
340,833.40,740.00,128.96
341,833.47,741.00,128.53
342,833.54,742.00,123.72
343,833.61,743.00,113.66
344,833.68,744.00,110.03
345,833.75,745.00,111.06
346,833.82,746.00,118.02
347,833.89,747.00,120.75
348,833.96,748.00,130.47
349,834.03,749.00,127.99
350,834.10,750.00,135.09
351,834.17,751.00,135.89
352,834.24,752.00,150.68
353,834.31,753.00,160.24
354,834.38,754.00,169.23
355,834.45,755.00,197.25
356,834.52,756.00,202.03
357,834.59,757.00,208.53
358,834.65,758.00,209.91
359,834.72,759.00,221.40
360,834.79,760.00,224.60
361,834.86,761.00,223.95
362,834.93,762.00,216.95
363,835.00,763.00,220.63
364,835.07,764.00,208.14
365,835.14,765.00,214.60
366,835.21,766.00,222.04
367,835.28,767.00,226.53
368,835.35,768.00,234.69
369,835.42,769.00,242.74
370,835.49,770.00,266.93
371,835.56,771.00,270.58
372,835.63,772.00,282.38
373,835.70,773.00,283.57
374,835.77,774.00,302.67
375,835.84,775.00,301.91
376,835.91,776.00,316.80
377,835.98,777.00,312.46
378,836.05,778.00,328.86
379,836.12,779.00,320.50
380,836.19,780.00,325.12
381,836.26,781.00,338.08
382,836.33,782.00,336.38
383,836.40,783.00,340.54
384,836.47,784.00,332.50
385,836.54,785.00,341.90
386,836.61,786.00,356.45
387,836.68,787.00,342.18
388,836.75,788.00,337.32
389,836.82,789.00,333.92
390,836.89,790.00,329.37
391,836.96,791.00,297.66
392,837.03,792.00,300.34
393,837.10,793.00,287.75
394,837.17,794.00,289.27
395,837.24,795.00,291.21
396,837.31,796.00,297.22
397,837.38,797.00,284.97
398,837.45,798.00,269.62
399,837.52,799.00,275.35
400,837.59,800.00,258.36
401,837.66,801.00,248.13
402,837.73,802.00,256.90
403,837.80,803.00,241.74
404,837.87,804.00,258.05
405,837.94,805.00,254.26
406,838.01,806.00,265.85
407,838.08,807.00,264.34
408,838.15,808.00,271.94
409,838.22,809.00,277.79
410,838.29,810.00,282.17
411,838.36,811.00,296.68
412,838.43,812.00,300.56
413,838.50,813.00,311.88
414,838.57,814.00,324.15
415,838.64,815.00,333.59
416,838.72,816.00,338.09
417,838.79,817.00,356.44
418,838.86,818.00,357.85
419,838.93,819.00,342.88
420,839.00,820.00,342.70
421,839.07,821.00,339.91
422,839.14,822.00,342.36
423,839.21,823.00,334.44
424,839.28,824.00,328.84
425,839.35,825.00,331.61
426,839.42,826.00,332.43
427,839.49,827.00,343.70
428,839.56,828.00,352.18
429,839.63,829.00,364.69
430,839.70,830.00,378.73
431,839.77,831.00,409.21
432,839.84,832.00,423.65
433,839.91,833.00,455.54
434,839.98,834.00,466.39
435,840.05,835.00,503.16
436,840.12,836.00,537.76
437,840.19,837.00,558.26
438,840.27,838.00,573.38
439,840.34,839.00,582.91
440,840.41,840.00,595.80
441,840.48,841.00,598.35
442,840.55,842.00,602.84
443,840.62,843.00,597.88
444,840.69,844.00,582.56
445,840.76,845.00,571.08
446,840.83,846.00,557.94
447,840.90,847.00,548.71
448,840.97,848.00,542.37
449,841.04,849.00,530.91
450,841.11,850.00,513.86
451,841.18,851.00,503.55
452,841.26,852.00,496.20
453,841.33,853.00,481.71
454,841.40,854.00,483.56
455,841.47,855.00,462.23
456,841.54,856.00,446.92
457,841.61,857.00,444.61
458,841.68,858.00,442.03
459,841.75,859.00,415.69
460,841.82,860.00,391.81
461,841.89,861.00,393.77
462,841.96,862.00,371.48
463,842.03,863.00,348.84
464,842.11,864.00,332.59
465,842.18,865.00,333.46
466,842.25,866.00,326.62
467,842.32,867.00,316.94
468,842.39,868.00,305.86
469,842.46,869.00,309.58
470,842.53,870.00,319.52
471,842.60,871.00,315.74
472,842.67,872.00,306.06
473,842.74,873.00,307.67
474,842.82,874.00,300.81
475,842.89,875.00,312.20
476,842.96,876.00,311.26
477,843.03,877.00,320.65
478,843.10,878.00,335.00
479,843.17,879.00,355.51
480,843.24,880.00,374.56
481,843.31,881.00,408.70
482,843.38,882.00,432.99
483,843.45,883.00,462.57
484,843.53,884.00,489.13
485,843.60,885.00,511.15
486,843.67,886.00,527.50
487,843.74,887.00,554.28
488,843.81,888.00,569.74
489,843.88,889.00,567.58
490,843.95,890.00,555.55
491,844.02,891.00,526.40
492,844.10,892.00,505.18
493,844.17,893.00,460.59
494,844.24,894.00,427.85
495,844.31,895.00,385.90
496,844.38,896.00,355.44
497,844.45,897.00,325.55
498,844.52,898.00,298.20
499,844.59,899.00,279.66
500,844.67,900.00,266.74
501,844.74,901.00,249.05
502,844.81,902.00,237.78
503,844.88,903.00,228.26
504,844.95,904.00,219.12
505,845.02,905.00,222.38
506,845.09,906.00,216.35
507,845.17,907.00,213.15
508,845.24,908.00,207.49
509,845.31,909.00,215.13
510,845.38,910.00,202.44
511,845.45,911.00,205.90
512,845.52,912.00,201.97
513,845.59,913.00,197.09
514,845.67,914.00,179.07
515,845.74,915.00,187.23
516,845.81,916.00,162.65
517,845.88,917.00,170.12
518,845.95,918.00,170.85
519,846.02,919.00,184.01
520,846.10,920.00,159.22
521,846.17,921.00,167.67
522,846.24,922.00,162.72
523,846.31,923.00,170.69
524,846.38,924.00,157.64
525,846.45,925.00,173.64
526,846.53,926.00,164.10
527,846.60,927.00,163.32
528,846.67,928.00,152.23
529,846.74,929.00,149.17
530,846.81,930.00,148.92
531,846.88,931.00,139.45
532,846.96,932.00,145.17
533,847.03,933.00,137.75
534,847.10,934.00,144.73
535,847.17,935.00,143.47
536,847.24,936.00,143.94
537,847.31,937.00,147.05
538,847.39,938.00,153.16
539,847.46,939.00,157.35
540,847.53,940.00,172.12
541,847.60,941.00,175.04
542,847.67,942.00,182.11
543,847.75,943.00,188.58
544,847.82,944.00,204.28
545,847.89,945.00,220.20
546,847.96,946.00,239.99
547,848.03,947.00,242.24
548,848.10,948.00,252.23
549,848.18,949.00,250.82
550,848.25,950.00,262.63
551,848.32,951.00,270.88
552,848.39,952.00,263.74
553,848.46,953.00,256.13
554,848.54,954.00,258.14
555,848.61,955.00,249.48
556,848.68,956.00,230.88
557,848.75,957.00,217.16
558,848.82,958.00,199.30
559,848.90,959.00,198.36
560,848.97,960.00,178.45
561,849.04,961.00,170.15
562,849.11,962.00,166.93
563,849.18,963.00,159.20
564,849.26,964.00,155.03
565,849.33,965.00,146.82
566,849.40,966.00,153.07
567,849.47,967.00,150.20
568,849.55,968.00,154.06
569,849.62,969.00,146.32
570,849.69,970.00,156.66
571,849.76,971.00,156.59
572,849.83,972.00,157.08
573,849.91,973.00,156.55
574,849.98,974.00,172.43
575,850.05,975.00,177.70
576,850.12,976.00,173.96
577,850.20,977.00,174.30
578,850.27,978.00,176.15
579,850.34,979.00,172.94
580,850.41,980.00,157.53
581,850.48,981.00,167.53
582,850.56,982.00,163.89
583,850.63,983.00,166.57
584,850.70,984.00,149.53
585,850.77,985.00,141.73
586,850.85,986.00,139.45
587,850.92,987.00,134.28
588,850.99,988.00,126.59
589,851.06,989.00,125.54
590,851.14,990.00,117.81
591,851.21,991.00,125.49
592,851.28,992.00,116.90
593,851.35,993.00,116.71
594,851.43,994.00,119.62
595,851.50,995.00,122.33
596,851.57,996.00,128.08
597,851.64,997.00,133.11
598,851.72,998.00,135.93
599,851.79,999.00,137.37
600,851.86,1000.00,142.76
601,851.93,1001.00,159.44
602,852.01,1002.00,166.71
603,852.08,1003.00,176.58
604,852.15,1004.00,177.50
605,852.22,1005.00,186.60
606,852.30,1006.00,185.03
607,852.37,1007.00,199.98
608,852.44,1008.00,198.24
609,852.51,1009.00,191.71
610,852.59,1010.00,184.75
611,852.66,1011.00,185.67
612,852.73,1012.00,177.33
613,852.81,1013.00,176.34
614,852.88,1014.00,164.50
615,852.95,1015.00,163.05
616,853.02,1016.00,173.31
617,853.10,1017.00,188.00
618,853.17,1018.00,198.51
619,853.24,1019.00,211.73
620,853.32,1020.00,223.81
621,853.39,1021.00,223.91
622,853.46,1022.00,239.98
623,853.53,1023.00,237.70
624,853.61,1024.00,245.44
625,853.68,1025.00,233.39
626,853.75,1026.00,249.21
627,853.83,1027.00,259.94
628,853.90,1028.00,264.69
629,853.97,1029.00,274.41
630,854.04,1030.00,257.46
631,854.12,1031.00,263.54
632,854.19,1032.00,268.17
633,854.26,1033.00,268.98
634,854.34,1034.00,278.69
635,854.41,1035.00,274.81
636,854.48,1036.00,293.44
637,854.55,1037.00,300.58
638,854.63,1038.00,314.49
639,854.70,1039.00,303.59
640,854.77,1040.00,308.35
641,854.85,1041.00,318.68
642,854.92,1042.00,319.36
643,854.99,1043.00,332.98
644,855.07,1044.00,346.24
645,855.14,1045.00,351.19
646,855.21,1046.00,353.64
647,855.29,1047.00,366.41
648,855.36,1048.00,360.63
649,855.43,1049.00,375.84
650,855.51,1050.00,387.63
651,855.58,1051.00,389.68
652,855.65,1052.00,406.30
653,855.72,1053.00,412.16
654,855.80,1054.00,430.97
655,855.87,1055.00,450.07
656,855.94,1056.00,473.04
657,856.02,1057.00,487.57
658,856.09,1058.00,503.53
659,856.16,1059.00,535.02
660,856.24,1060.00,555.63
661,856.31,1061.00,583.48
662,856.38,1062.00,605.99
663,856.46,1063.00,634.21
664,856.53,1064.00,648.22
665,856.60,1065.00,658.15
666,856.68,1066.00,662.69
667,856.75,1067.00,652.67
668,856.82,1068.00,633.23
669,856.90,1069.00,621.87
670,856.97,1070.00,590.03
671,857.04,1071.00,547.21
672,857.12,1072.00,527.89
673,857.19,1073.00,474.42
674,857.27,1074.00,453.95
675,857.34,1075.00,414.97
676,857.41,1076.00,384.36
677,857.49,1077.00,374.55
678,857.56,1078.00,336.23
679,857.63,1079.00,321.08
680,857.71,1080.00,313.67
681,857.78,1081.00,295.68
682,857.85,1082.00,287.26
683,857.93,1083.00,279.74
684,858.00,1084.00,270.81
685,858.07,1085.00,260.86
686,858.15,1086.00,252.00
687,858.22,1087.00,243.96
688,858.30,1088.00,234.11
689,858.37,1089.00,233.67
690,858.44,1090.00,221.36
691,858.52,1091.00,228.07
692,858.59,1092.00,227.80
693,858.66,1093.00,222.16
694,858.74,1094.00,226.29
695,858.81,1095.00,229.87
696,858.89,1096.00,229.94
697,858.96,1097.00,235.14
698,859.03,1098.00,237.10
699,859.11,1099.00,237.97
700,859.18,1100.00,253.73
701,859.25,1101.00,244.61
702,859.33,1102.00,237.75
703,859.40,1103.00,235.05
704,859.48,1104.00,233.46
705,859.55,1105.00,224.09
706,859.62,1106.00,216.03
707,859.70,1107.00,209.41
708,859.77,1108.00,189.85
709,859.85,1109.00,182.41
710,859.92,1110.00,177.37
711,859.99,1111.00,170.41
712,860.07,1112.00,164.66
713,860.14,1113.00,161.40
714,860.22,1114.00,156.79
715,860.29,1115.00,162.11
716,860.36,1116.00,145.86
717,860.44,1117.00,142.16
718,860.51,1118.00,137.25
719,860.59,1119.00,134.88
720,860.66,1120.00,137.36
721,860.73,1121.00,132.88
722,860.81,1122.00,139.40
723,860.88,1123.00,125.09
724,860.96,1124.00,128.53
725,861.03,1125.00,122.43
726,861.10,1126.00,121.20
727,861.18,1127.00,116.21
728,861.25,1128.00,115.30
729,861.33,1129.00,123.35
730,861.40,1130.00,127.14
731,861.47,1131.00,141.92
732,861.55,1132.00,146.32
733,861.62,1133.00,161.88
734,861.70,1134.00,171.00
735,861.77,1135.00,184.36
736,861.85,1136.00,190.31
737,861.92,1137.00,207.90
738,861.99,1138.00,213.66
739,862.07,1139.00,210.63
740,862.14,1140.00,217.14
741,862.22,1141.00,220.42
742,862.29,1142.00,221.47
743,862.37,1143.00,225.29
744,862.44,1144.00,217.22
745,862.52,1145.00,228.77
746,862.59,1146.00,242.22
747,862.66,1147.00,250.60
748,862.74,1148.00,253.10
749,862.81,1149.00,248.38
750,862.89,1150.00,250.55
751,862.96,1151.00,274.66
752,863.04,1152.00,276.67
753,863.11,1153.00,308.96
754,863.19,1154.00,315.80
755,863.26,1155.00,309.01
756,863.33,1156.00,326.19
757,863.41,1157.00,316.54
758,863.48,1158.00,309.66
759,863.56,1159.00,298.25
760,863.63,1160.00,296.66
761,863.71,1161.00,275.91
762,863.78,1162.00,257.97
763,863.86,1163.00,230.92
764,863.93,1164.00,215.98
765,864.01,1165.00,194.70
766,864.08,1166.00,190.29
767,864.15,1167.00,179.06
768,864.23,1168.00,175.21
769,864.30,1169.00,169.59
770,864.38,1170.00,156.14
771,864.45,1171.00,173.08
772,864.53,1172.00,153.79
773,864.60,1173.00,153.14
774,864.68,1174.00,166.48
775,864.75,1175.00,157.74
776,864.83,1176.00,168.26
777,864.90,1177.00,173.88
778,864.98,1178.00,179.54
779,865.05,1179.00,178.69
780,865.13,1180.00,168.67
781,865.20,1181.00,153.42
782,865.28,1182.00,153.20
783,865.35,1183.00,138.77
784,865.43,1184.00,128.52
785,865.50,1185.00,121.26
786,865.58,1186.00,120.82
787,865.65,1187.00,108.71
788,865.73,1188.00,108.65
789,865.80,1189.00,106.09
790,865.88,1190.00,100.47
791,865.95,1191.00,98.07
792,866.03,1192.00,102.58
793,866.10,1193.00,95.83
794,866.18,1194.00,107.35
795,866.25,1195.00,104.82
796,866.33,1196.00,107.04
797,866.40,1197.00,93.16
798,866.48,1198.00,102.82
799,866.55,1199.00,101.81
800,866.63,1200.00,98.48
801,866.70,1201.00,87.40
802,866.78,1202.00,72.47
803,866.85,1203.00,70.36
804,866.93,1204.00,66.06
805,867.00,1205.00,65.64
806,867.08,1206.00,58.70
807,867.15,1207.00,62.29
808,867.23,1208.00,65.73
809,867.30,1209.00,76.73
810,867.38,1210.00,77.71
811,867.45,1211.00,80.14
812,867.53,1212.00,73.89
813,867.60,1213.00,78.09
814,867.68,1214.00,81.84
815,867.75,1215.00,81.60
816,867.83,1216.00,78.10
817,867.90,1217.00,85.15
818,867.98,1218.00,79.83
819,868.06,1219.00,79.53
820,868.13,1220.00,83.15
821,868.21,1221.00,87.88
822,868.28,1222.00,95.19
823,868.36,1223.00,99.98
824,868.43,1224.00,103.49
825,868.51,1225.00,113.96
826,868.58,1226.00,117.19
827,868.66,1227.00,120.00
828,868.73,1228.00,127.42
829,868.81,1229.00,141.64
830,868.89,1230.00,139.30
831,868.96,1231.00,146.32
832,869.04,1232.00,157.05
833,869.11,1233.00,158.28
834,869.19,1234.00,158.79
835,869.26,1235.00,168.72
836,869.34,1236.00,171.63
837,869.41,1237.00,184.18
838,869.49,1238.00,177.68
839,869.57,1239.00,183.45
840,869.64,1240.00,186.98
841,869.72,1241.00,193.96
842,869.79,1242.00,205.31
843,869.87,1243.00,195.80
844,869.94,1244.00,204.09
845,870.02,1245.00,197.43
846,870.09,1246.00,202.14
847,870.17,1247.00,200.06
848,870.25,1248.00,200.34
849,870.32,1249.00,206.55
850,870.40,1250.00,208.40
851,870.47,1251.00,219.10
852,870.55,1252.00,218.28
853,870.63,1253.00,231.61
854,870.70,1254.00,245.78
855,870.78,1255.00,263.78
856,870.85,1256.00,277.52
857,870.93,1257.00,297.16
858,871.00,1258.00,324.11
859,871.08,1259.00,368.97
860,871.16,1260.00,382.65
861,871.23,1261.00,414.76
862,871.31,1262.00,433.07
863,871.38,1263.00,453.31
864,871.46,1264.00,474.30
865,871.54,1265.00,478.79
866,871.61,1266.00,484.54
867,871.69,1267.00,450.77
868,871.76,1268.00,438.55
869,871.84,1269.00,424.43
870,871.92,1270.00,410.27
871,871.99,1271.00,360.91
872,872.07,1272.00,340.87
873,872.14,1273.00,327.26
874,872.22,1274.00,317.73
875,872.30,1275.00,297.60
876,872.37,1276.00,288.18
877,872.45,1277.00,277.36
878,872.52,1278.00,274.06
879,872.60,1279.00,277.51
880,872.68,1280.00,288.45
881,872.75,1281.00,296.64
882,872.83,1282.00,314.31
883,872.91,1283.00,333.62
884,872.98,1284.00,344.86
885,873.06,1285.00,385.99
886,873.13,1286.00,418.84
887,873.21,1287.00,469.61
888,873.29,1288.00,500.82
889,873.36,1289.00,558.22
890,873.44,1290.00,586.27
891,873.52,1291.00,639.58
892,873.59,1292.00,697.11
893,873.67,1293.00,754.69
894,873.74,1294.00,813.78
895,873.82,1295.00,864.01
896,873.90,1296.00,895.93
897,873.97,1297.00,954.50
898,874.05,1298.00,953.19
899,874.13,1299.00,993.18
900,874.20,1300.00,991.01
901,874.28,1301.00,1005.42
902,874.36,1302.00,993.65
903,874.43,1303.00,971.54
904,874.51,1304.00,956.05
905,874.58,1305.00,905.87
906,874.66,1306.00,890.83
907,874.74,1307.00,843.43
908,874.81,1308.00,819.85
909,874.89,1309.00,786.04
910,874.97,1310.00,769.50
911,875.04,1311.00,731.16
912,875.12,1312.00,705.23
913,875.20,1313.00,676.94
914,875.27,1314.00,659.00
915,875.35,1315.00,631.35
916,875.43,1316.00,600.82
917,875.50,1317.00,578.87
918,875.58,1318.00,560.70
919,875.66,1319.00,532.67
920,875.73,1320.00,510.01
921,875.81,1321.00,486.42
922,875.89,1322.00,469.02
923,875.96,1323.00,458.62
924,876.04,1324.00,435.64
925,876.12,1325.00,433.23
926,876.19,1326.00,436.80
927,876.27,1327.00,427.59
928,876.35,1328.00,430.15
929,876.42,1329.00,439.81
930,876.50,1330.00,450.21
931,876.58,1331.00,473.87
932,876.65,1332.00,445.68
933,876.73,1333.00,473.07
934,876.81,1334.00,487.58
935,876.89,1335.00,465.76
936,876.96,1336.00,478.31
937,877.04,1337.00,482.07
938,877.12,1338.00,467.46
939,877.19,1339.00,464.95
940,877.27,1340.00,459.94
941,877.35,1341.00,464.88
942,877.42,1342.00,458.83
943,877.50,1343.00,445.01
944,877.58,1344.00,428.62
945,877.65,1345.00,433.27
946,877.73,1346.00,416.55
947,877.81,1347.00,423.47
948,877.89,1348.00,413.53
949,877.96,1349.00,429.80
950,878.04,1350.00,425.25
951,878.12,1351.00,450.94
952,878.19,1352.00,451.69
953,878.27,1353.00,464.77
954,878.35,1354.00,471.18
955,878.43,1355.00,491.82
956,878.50,1356.00,500.12
957,878.58,1357.00,488.40
958,878.66,1358.00,487.19
959,878.73,1359.00,469.13
960,878.81,1360.00,455.15
961,878.89,1361.00,435.77
962,878.97,1362.00,414.08
963,879.04,1363.00,374.96
964,879.12,1364.00,341.62
965,879.20,1365.00,325.10
966,879.28,1366.00,300.27
967,879.35,1367.00,263.25
968,879.43,1368.00,256.20
969,879.51,1369.00,240.83
970,879.58,1370.00,222.61
971,879.66,1371.00,215.74
972,879.74,1372.00,186.80
973,879.82,1373.00,198.48
974,879.89,1374.00,186.85
975,879.97,1375.00,191.57
976,880.05,1376.00,165.50
977,880.13,1377.00,168.95
978,880.20,1378.00,149.53
979,880.28,1379.00,137.77
980,880.36,1380.00,120.66
981,880.44,1381.00,111.77
982,880.51,1382.00,99.40
983,880.59,1383.00,79.48
984,880.67,1384.00,71.25
985,880.75,1385.00,62.49
986,880.82,1386.00,52.24
987,880.90,1387.00,41.91
988,880.98,1388.00,33.19
989,881.06,1389.00,31.16
990,881.13,1390.00,24.32
991,881.21,1391.00,19.63
992,881.29,1392.00,17.81
993,881.37,1393.00,15.13
994,881.45,1394.00,16.23
995,881.52,1395.00,16.05
996,881.60,1396.00,11.19
997,881.68,1397.00,12.34
998,881.76,1398.00,7.19
999,881.83,1399.00,9.19
1000,881.91,1400.00,8.69
1001,881.99,1401.00,9.41
1002,882.07,1402.00,9.26
1003,882.15,1403.00,10.09
1004,882.22,1404.00,11.18
1005,882.30,1405.00,14.62
1006,882.38,1406.00,11.12
1007,882.46,1407.00,17.55
1008,882.53,1408.00,19.09
1009,882.61,1409.00,20.12
1010,882.69,1410.00,28.27
1011,882.77,1411.00,31.35
1012,882.85,1412.00,32.76
1013,882.92,1413.00,36.88
1014,883.00,1414.00,34.13
1015,883.08,1415.00,34.71
1016,883.16,1416.00,35.74
1017,883.24,1417.00,37.44
1018,883.31,1418.00,38.23
1019,883.39,1419.00,33.92
1020,883.47,1420.00,44.19
1021,883.55,1421.00,50.64
1022,883.63,1422.00,60.95
1023,883.70,1423.00,67.45
1024,883.78,1424.00,94.58
1025,883.86,1425.00,116.66
1026,883.94,1426.00,152.68
1027,884.02,1427.00,196.60
1028,884.10,1428.00,263.68
1029,884.17,1429.00,346.50
1030,884.25,1430.00,462.03
1031,884.33,1431.00,613.36
1032,884.41,1432.00,781.43
1033,884.49,1433.00,979.29
1034,884.56,1434.00,1163.51
1035,884.64,1435.00,1373.16
1036,884.72,1436.00,1560.25
1037,884.80,1437.00,1723.45
1038,884.88,1438.00,1873.38
1039,884.96,1439.00,1961.58
1040,885.03,1440.00,1995.37
1041,885.11,1441.00,2038.97
1042,885.19,1442.00,2019.06
1043,885.27,1443.00,1986.89
1044,885.35,1444.00,1962.00
1045,885.43,1445.00,1899.00
1046,885.50,1446.00,1853.51
1047,885.58,1447.00,1815.95
1048,885.66,1448.00,1798.30
1049,885.74,1449.00,1789.74
1050,885.82,1450.00,1772.23
1051,885.90,1451.00,1777.63
1052,885.98,1452.00,1798.29
1053,886.05,1453.00,1806.71
1054,886.13,1454.00,1820.89
1055,886.21,1455.00,1831.34
1056,886.29,1456.00,1829.76
1057,886.37,1457.00,1824.24
1058,886.45,1458.00,1825.39
1059,886.52,1459.00,1789.72
1060,886.60,1460.00,1731.43
1061,886.68,1461.00,1669.83
1062,886.76,1462.00,1571.69
1063,886.84,1463.00,1488.43
1064,886.92,1464.00,1364.68
1065,887.00,1465.00,1267.74
1066,887.08,1466.00,1154.46
1067,887.15,1467.00,1032.53
1068,887.23,1468.00,936.06
1069,887.31,1469.00,821.82
1070,887.39,1470.00,733.80
1071,887.47,1471.00,640.93
1072,887.55,1472.00,565.95
1073,887.63,1473.00,507.99
1074,887.71,1474.00,465.28
1075,887.78,1475.00,410.17
1076,887.86,1476.00,383.02
1077,887.94,1477.00,350.10
1078,888.02,1478.00,325.98
1079,888.10,1479.00,316.62
1080,888.18,1480.00,299.00
1081,888.26,1481.00,289.09
1082,888.34,1482.00,263.75
1083,888.42,1483.00,249.90
1084,888.49,1484.00,242.28
1085,888.57,1485.00,233.86
1086,888.65,1486.00,225.52
1087,888.73,1487.00,213.30
1088,888.81,1488.00,185.39
1089,888.89,1489.00,173.60
1090,888.97,1490.00,154.09
1091,889.05,1491.00,147.90
1092,889.13,1492.00,124.97
1093,889.21,1493.00,112.63
1094,889.28,1494.00,97.88
1095,889.36,1495.00,88.85
1096,889.44,1496.00,81.75
1097,889.52,1497.00,69.74
1098,889.60,1498.00,66.14
1099,889.68,1499.00,58.88
1100,889.76,1500.00,52.34
1101,889.84,1501.00,51.66
1102,889.92,1502.00,46.06
1103,890.00,1503.00,45.27
1104,890.08,1504.00,42.55
1105,890.15,1505.00,44.08
1106,890.23,1506.00,41.10
1107,890.31,1507.00,34.86
1108,890.39,1508.00,36.50
1109,890.47,1509.00,39.12
1110,890.55,1510.00,36.10
1111,890.63,1511.00,32.75
1112,890.71,1512.00,34.40
1113,890.79,1513.00,35.90
1114,890.87,1514.00,31.70
1115,890.95,1515.00,26.47
1116,891.03,1516.00,24.82
1117,891.11,1517.00,30.98
1118,891.19,1518.00,29.71
1119,891.27,1519.00,33.26
1120,891.35,1520.00,35.22
1121,891.42,1521.00,37.59
1122,891.50,1522.00,33.32
1123,891.58,1523.00,32.06
1124,891.66,1524.00,32.45
1125,891.74,1525.00,31.28
1126,891.82,1526.00,29.39
1127,891.90,1527.00,31.15
1128,891.98,1528.00,26.68
1129,892.06,1529.00,22.85
1130,892.14,1530.00,21.64
1131,892.22,1531.00,21.93
1132,892.30,1532.00,20.35
1133,892.38,1533.00,19.12
1134,892.46,1534.00,16.27
1135,892.54,1535.00,16.89
1136,892.62,1536.00,14.09
1137,892.70,1537.00,13.55
1138,892.78,1538.00,13.06
1139,892.86,1539.00,12.36
1140,892.94,1540.00,14.27
1141,893.02,1541.00,12.64
1142,893.10,1542.00,13.30
1143,893.18,1543.00,10.00
1144,893.26,1544.00,11.19
1145,893.34,1545.00,10.39
1146,893.42,1546.00,9.93
1147,893.50,1547.00,11.23
1148,893.58,1548.00,12.08
1149,893.66,1549.00,11.06
1150,893.73,1550.00,10.72
1151,893.81,1551.00,14.69
1152,893.89,1552.00,12.70
1153,893.97,1553.00,13.41
1154,894.05,1554.00,12.84
1155,894.13,1555.00,13.52
1156,894.21,1556.00,11.64
1157,894.29,1557.00,9.01
1158,894.37,1558.00,12.53
1159,894.45,1559.00,12.65
1160,894.53,1560.00,11.84
1161,894.61,1561.00,13.74
1162,894.69,1562.00,11.54
1163,894.77,1563.00,14.02
1164,894.85,1564.00,13.40
1165,894.93,1565.00,13.82
1166,895.01,1566.00,15.53
1167,895.09,1567.00,14.05
1168,895.18,1568.00,14.13
1169,895.26,1569.00,10.64
1170,895.34,1570.00,12.01
1171,895.42,1571.00,9.81
1172,895.50,1572.00,7.25
1173,895.58,1573.00,6.61
1174,895.66,1574.00,5.93
1175,895.74,1575.00,4.73
1176,895.82,1576.00,5.18
1177,895.90,1577.00,3.52
1178,895.98,1578.00,3.82
1179,896.06,1579.00,4.89
1180,896.14,1580.00,2.35
1181,896.22,1581.00,4.09
1182,896.30,1582.00,4.34
1183,896.38,1583.00,4.80
1184,896.46,1584.00,7.33
1185,896.54,1585.00,11.07
1186,896.62,1586.00,10.69
1187,896.70,1587.00,12.93
1188,896.78,1588.00,7.42
1189,896.86,1589.00,10.76
1190,896.94,1590.00,13.19
1191,897.02,1591.00,13.14
1192,897.10,1592.00,7.80
1193,897.18,1593.00,8.19
1194,897.26,1594.00,7.54
1195,897.34,1595.00,8.58
1196,897.42,1596.00,9.20
1197,897.50,1597.00,9.06
1198,897.59,1598.00,7.08
1199,897.67,1599.00,5.99
1200,897.75,1600.00,4.96
1201,897.83,1601.00,1.98
1202,897.91,1602.00,5.32
1203,897.99,1603.00,3.27
1204,898.07,1604.00,5.41
1205,898.15,1605.00,4.39
1206,898.23,1606.00,8.27
1207,898.31,1607.00,6.25
1208,898.39,1608.00,8.33
1209,898.47,1609.00,5.73
1210,898.55,1610.00,8.29
1211,898.63,1611.00,8.07
1212,898.71,1612.00,5.19
1213,898.80,1613.00,6.57
1214,898.88,1614.00,5.80
1215,898.96,1615.00,5.02
1216,899.04,1616.00,4.67
1217,899.12,1617.00,2.77
1218,899.20,1618.00,6.34
1219,899.28,1619.00,4.67
1220,899.36,1620.00,4.53
1221,899.44,1621.00,5.81
1222,899.52,1622.00,7.71
1223,899.60,1623.00,7.42
1224,899.69,1624.00,6.74
1225,899.77,1625.00,6.87
1226,899.85,1626.00,8.08
1227,899.93,1627.00,8.12
1228,900.01,1628.00,9.26
1229,900.09,1629.00,10.47
1230,900.17,1630.00,10.88
1231,900.25,1631.00,9.86
1232,900.33,1632.00,10.25
1233,900.41,1633.00,10.15
1234,900.50,1634.00,9.26
1235,900.58,1635.00,8.00
1236,900.66,1636.00,10.43
1237,900.74,1637.00,6.47
1238,900.82,1638.00,9.57
1239,900.90,1639.00,9.00
1240,900.98,1640.00,7.52
1241,901.06,1641.00,4.50
1242,901.14,1642.00,6.19
1243,901.23,1643.00,7.69
1244,901.31,1644.00,5.46
1245,901.39,1645.00,3.29
1246,901.47,1646.00,5.31
1247,901.55,1647.00,3.27
1248,901.63,1648.00,5.97
1249,901.71,1649.00,5.11
1250,901.79,1650.00,7.55
1251,901.88,1651.00,8.50
1252,901.96,1652.00,6.21
1253,902.04,1653.00,4.89
1254,902.12,1654.00,8.01
1255,902.20,1655.00,11.42
1256,902.28,1656.00,9.18
1257,902.36,1657.00,13.33
1258,902.45,1658.00,12.55
1259,902.53,1659.00,16.49
1260,902.61,1660.00,16.24
1261,902.69,1661.00,14.47
1262,902.77,1662.00,12.39
1263,902.85,1663.00,11.25
1264,902.93,1664.00,12.21
1265,903.02,1665.00,9.25
1266,903.10,1666.00,12.92
1267,903.18,1667.00,10.90
1268,903.26,1668.00,10.55
1269,903.34,1669.00,8.04
1270,903.42,1670.00,9.56
1271,903.51,1671.00,7.07
1272,903.59,1672.00,9.26
1273,903.67,1673.00,3.85
1274,903.75,1674.00,7.28
1275,903.83,1675.00,5.98
1276,903.91,1676.00,6.71
1277,904.00,1677.00,5.24
1278,904.08,1678.00,4.31
1279,904.16,1679.00,6.28
1280,904.24,1680.00,3.90
1281,904.32,1681.00,4.56
1282,904.40,1682.00,7.50
1283,904.49,1683.00,5.98
1284,904.57,1684.00,4.91
1285,904.65,1685.00,7.29
1286,904.73,1686.00,8.42
1287,904.81,1687.00,7.21
1288,904.90,1688.00,8.95
1289,904.98,1689.00,5.77
1290,905.06,1690.00,7.44
1291,905.14,1691.00,8.35
1292,905.22,1692.00,6.43
1293,905.31,1693.00,5.63
1294,905.39,1694.00,6.85
1295,905.47,1695.00,5.28
1296,905.55,1696.00,7.54
1297,905.63,1697.00,5.97
1298,905.72,1698.00,7.35
1299,905.80,1699.00,8.40
1300,905.88,1700.00,6.70
1301,905.96,1701.00,8.73
1302,906.04,1702.00,10.14
1303,906.13,1703.00,8.18
1304,906.21,1704.00,8.03
1305,906.29,1705.00,6.47
1306,906.37,1706.00,6.98
1307,906.45,1707.00,6.63
1308,906.54,1708.00,7.81
1309,906.62,1709.00,6.63
1310,906.70,1710.00,9.68
1311,906.78,1711.00,4.38
1312,906.87,1712.00,5.96
1313,906.95,1713.00,4.21
1314,907.03,1714.00,3.90
1315,907.11,1715.00,3.93
1316,907.19,1716.00,3.17
1317,907.28,1717.00,3.77
1318,907.36,1718.00,5.19
1319,907.44,1719.00,1.86
1320,907.52,1720.00,6.00
1321,907.61,1721.00,5.14
1322,907.69,1722.00,8.24
1323,907.77,1723.00,9.42
1324,907.85,1724.00,9.80
1325,907.94,1725.00,14.91
1326,908.02,1726.00,17.18
1327,908.10,1727.00,17.81
1328,908.18,1728.00,14.80
1329,908.27,1729.00,15.86
1330,908.35,1730.00,13.01
1331,908.43,1731.00,12.06
1332,908.51,1732.00,9.18
1333,908.60,1733.00,11.69
1334,908.68,1734.00,7.81
1335,908.76,1735.00,6.90
1336,908.84,1736.00,8.29
1337,908.93,1737.00,9.71
1338,909.01,1738.00,8.61
1339,909.09,1739.00,8.58
1340,909.17,1740.00,9.88
1341,909.26,1741.00,8.74
1342,909.34,1742.00,7.73
1343,909.42,1743.00,4.88
1344,909.50,1744.00,7.95
1345,909.59,1745.00,4.23
1346,909.67,1746.00,9.40
1347,909.75,1747.00,7.76
1348,909.84,1748.00,7.92
1349,909.92,1749.00,7.48
1350,910.00,1750.00,6.05
1351,910.08,1751.00,7.58
1352,910.17,1752.00,6.40
1353,910.25,1753.00,6.23
1354,910.33,1754.00,6.26
1355,910.42,1755.00,5.65
1356,910.50,1756.00,7.28
1357,910.58,1757.00,9.60
1358,910.66,1758.00,9.47
1359,910.75,1759.00,8.19
1360,910.83,1760.00,11.85
1361,910.91,1761.00,12.86
1362,911.00,1762.00,12.31
1363,911.08,1763.00,10.87
1364,911.16,1764.00,9.99
1365,911.24,1765.00,6.92
1366,911.33,1766.00,8.39
1367,911.41,1767.00,7.79
1368,911.49,1768.00,7.83
1369,911.58,1769.00,8.99
1370,911.66,1770.00,9.61
1371,911.74,1771.00,10.04
1372,911.83,1772.00,9.50
1373,911.91,1773.00,9.84
1374,911.99,1774.00,9.25
1375,912.08,1775.00,8.48
1376,912.16,1776.00,8.10
1377,912.24,1777.00,7.23
1378,912.33,1778.00,7.07
1379,912.41,1779.00,9.71
1380,912.49,1780.00,5.60
1381,912.58,1781.00,4.84
1382,912.66,1782.00,7.58
1383,912.74,1783.00,5.40
1384,912.83,1784.00,8.13
1385,912.91,1785.00,5.62
1386,912.99,1786.00,8.82
1387,913.08,1787.00,8.39
1388,913.16,1788.00,8.68
1389,913.24,1789.00,6.67
1390,913.33,1790.00,9.68
1391,913.41,1791.00,4.56
1392,913.49,1792.00,9.64
1393,913.58,1793.00,5.62
1394,913.66,1794.00,7.96
1395,913.74,1795.00,8.65
1396,913.83,1796.00,7.37
1397,913.91,1797.00,6.95
1398,913.99,1798.00,6.65
1399,914.08,1799.00,5.78
1400,914.16,1800.00,5.60
1401,914.24,1801.00,5.04
1402,914.33,1802.00,6.23
1403,914.41,1803.00,5.47
1404,914.49,1804.00,9.53
1405,914.58,1805.00,6.85
1406,914.66,1806.00,8.61
1407,914.75,1807.00,8.08
1408,914.83,1808.00,7.96
1409,914.91,1809.00,7.36
1410,915.00,1810.00,8.53
1411,915.08,1811.00,7.19
1412,915.16,1812.00,6.63
1413,915.25,1813.00,7.21
1414,915.33,1814.00,6.74
1415,915.42,1815.00,7.23
1416,915.50,1816.00,6.45
1417,915.58,1817.00,4.74
1418,915.67,1818.00,6.36
1419,915.75,1819.00,6.54
1420,915.83,1820.00,5.47
1421,915.92,1821.00,4.73
1422,916.00,1822.00,7.00
1423,916.09,1823.00,5.68
1424,916.17,1824.00,6.74
1425,916.25,1825.00,6.28
1426,916.34,1826.00,7.43
1427,916.42,1827.00,5.49
1428,916.51,1828.00,9.81
1429,916.59,1829.00,7.56
1430,916.67,1830.00,10.13
1431,916.76,1831.00,10.44
1432,916.84,1832.00,11.81
1433,916.93,1833.00,10.80
1434,917.01,1834.00,10.29
1435,917.09,1835.00,9.35
1436,917.18,1836.00,8.40
1437,917.26,1837.00,8.46
1438,917.35,1838.00,8.62
1439,917.43,1839.00,7.55
1440,917.52,1840.00,10.18
1441,917.60,1841.00,10.65
1442,917.68,1842.00,11.64
1443,917.77,1843.00,11.26
1444,917.85,1844.00,11.50
1445,917.94,1845.00,8.72
1446,918.02,1846.00,12.66
1447,918.11,1847.00,8.45
1448,918.19,1848.00,7.35
1449,918.27,1849.00,6.77
1450,918.36,1850.00,6.92
1451,918.44,1851.00,5.93
1452,918.53,1852.00,6.63
1453,918.61,1853.00,5.49
1454,918.70,1854.00,4.75
1455,918.78,1855.00,6.08
1456,918.86,1856.00,4.60
1457,918.95,1857.00,3.61
1458,919.03,1858.00,6.15
1459,919.12,1859.00,4.38
1460,919.20,1860.00,6.42
1461,919.29,1861.00,8.88
1462,919.37,1862.00,8.87
1463,919.46,1863.00,13.38
1464,919.54,1864.00,13.98
1465,919.62,1865.00,17.19
1466,919.71,1866.00,19.92
1467,919.79,1867.00,21.87
1468,919.88,1868.00,20.02
1469,919.96,1869.00,19.68
1470,920.05,1870.00,19.97
1471,920.13,1871.00,12.31
1472,920.22,1872.00,18.70
1473,920.30,1873.00,11.66
1474,920.39,1874.00,11.83
1475,920.47,1875.00,8.93
1476,920.56,1876.00,8.62
1477,920.64,1877.00,8.56
1478,920.73,1878.00,8.65
1479,920.81,1879.00,5.38
1480,920.90,1880.00,6.20
1481,920.98,1881.00,5.36
1482,921.06,1882.00,4.47
1483,921.15,1883.00,4.43
1484,921.23,1884.00,5.59
1485,921.32,1885.00,3.24
1486,921.40,1886.00,3.45
1487,921.49,1887.00,6.88
1488,921.57,1888.00,7.47
1489,921.66,1889.00,6.39
1490,921.74,1890.00,9.93
1491,921.83,1891.00,7.47
1492,921.91,1892.00,9.03
1493,922.00,1893.00,9.29
1494,922.08,1894.00,7.93
1495,922.17,1895.00,9.24
1496,922.25,1896.00,8.71
1497,922.34,1897.00,9.67
1498,922.42,1898.00,9.21
1499,922.51,1899.00,8.15
1500,922.59,1900.00,7.81
1501,922.68,1901.00,6.72
1502,922.76,1902.00,7.34
1503,922.85,1903.00,6.28
1504,922.93,1904.00,3.14
1505,923.02,1905.00,4.91
1506,923.11,1906.00,4.00
1507,923.19,1907.00,3.92
1508,923.28,1908.00,4.35
1509,923.36,1909.00,7.85
1510,923.45,1910.00,8.73
1511,923.53,1911.00,6.83
1512,923.62,1912.00,7.14
1513,923.70,1913.00,11.43
1514,923.79,1914.00,10.33
1515,923.87,1915.00,10.38
1516,923.96,1916.00,8.22
1517,924.04,1917.00,9.77
1518,924.13,1918.00,8.90
1519,924.21,1919.00,8.49
1520,924.30,1920.00,7.74
1521,924.39,1921.00,6.11
1522,924.47,1922.00,6.17
1523,924.56,1923.00,7.46
1524,924.64,1924.00,7.28
1525,924.73,1925.00,6.39
1526,924.81,1926.00,7.02
1527,924.90,1927.00,5.16
1528,924.98,1928.00,4.35
1529,925.07,1929.00,6.57
1530,925.16,1930.00,6.97
1531,925.24,1931.00,3.64
1532,925.33,1932.00,8.88
1533,925.41,1933.00,10.27
1534,925.50,1934.00,8.44
1535,925.58,1935.00,6.68
1536,925.67,1936.00,4.57
1537,925.75,1937.00,3.03
1538,925.84,1938.00,2.93
1539,925.93,1939.00,2.41
1540,926.01,1940.00,2.57
1541,926.10,1941.00,1.85
1542,926.18,1942.00,3.96
1543,926.27,1943.00,5.18
1544,926.35,1944.00,2.15
1545,926.44,1945.00,2.94
1546,926.53,1946.00,5.67
1547,926.61,1947.00,8.00
1548,926.70,1948.00,7.65
1549,926.78,1949.00,11.41
1550,926.87,1950.00,11.72
1551,926.96,1951.00,17.13
1552,927.04,1952.00,17.44
1553,927.13,1953.00,18.04
1554,927.21,1954.00,17.75
1555,927.30,1955.00,17.63
1556,927.39,1956.00,17.83
1557,927.47,1957.00,20.01
1558,927.56,1958.00,15.98
1559,927.64,1959.00,15.54
1560,927.73,1960.00,14.15
1561,927.82,1961.00,11.18
1562,927.90,1962.00,7.70
1563,927.99,1963.00,5.75
1564,928.07,1964.00,5.43
1565,928.16,1965.00,6.13
1566,928.25,1966.00,5.95
1567,928.33,1967.00,6.71
1568,928.42,1968.00,8.94
1569,928.51,1969.00,8.28
1570,928.59,1970.00,9.64
1571,928.68,1971.00,7.99
1572,928.76,1972.00,13.20
1573,928.85,1973.00,10.40
1574,928.94,1974.00,13.73
1575,929.02,1975.00,13.12
1576,929.11,1976.00,16.61
1577,929.20,1977.00,13.28
1578,929.28,1978.00,15.99
1579,929.37,1979.00,8.76
1580,929.45,1980.00,10.61
1581,929.54,1981.00,7.81
1582,929.63,1982.00,8.81
1583,929.71,1983.00,8.00
1584,929.80,1984.00,7.34
1585,929.89,1985.00,7.55
1586,929.97,1986.00,6.32
1587,930.06,1987.00,7.18
1588,930.15,1988.00,9.23
1589,930.23,1989.00,6.16
1590,930.32,1990.00,7.65
1591,930.41,1991.00,6.24
1592,930.49,1992.00,6.95
1593,930.58,1993.00,7.46
1594,930.67,1994.00,8.75
1595,930.75,1995.00,8.18
1596,930.84,1996.00,7.15
1597,930.93,1997.00,10.74
1598,931.01,1998.00,10.46
1599,931.10,1999.00,11.29
1600,931.19,2000.00,10.92
1601,931.27,2001.00,14.16
1602,931.36,2002.00,14.58
1603,931.45,2003.00,15.74
1604,931.53,2004.00,15.77
1605,931.62,2005.00,18.66
1606,931.71,2006.00,17.47
1607,931.79,2007.00,15.50
1608,931.88,2008.00,14.12
1609,931.97,2009.00,15.19
1610,932.05,2010.00,12.07
1611,932.14,2011.00,13.08
1612,932.23,2012.00,9.46
1613,932.31,2013.00,9.96
1614,932.40,2014.00,9.49
1615,932.49,2015.00,11.82
1616,932.57,2016.00,10.30
1617,932.66,2017.00,9.75
1618,932.75,2018.00,10.89
1619,932.84,2019.00,12.92
1620,932.92,2020.00,16.26
1621,933.01,2021.00,13.75
1622,933.10,2022.00,16.35
1623,933.18,2023.00,13.78
1624,933.27,2024.00,18.69
1625,933.36,2025.00,15.71
1626,933.45,2026.00,14.20
1627,933.53,2027.00,17.11
1628,933.62,2028.00,13.43
1629,933.71,2029.00,10.67
1630,933.79,2030.00,13.92
1631,933.88,2031.00,13.71
1632,933.97,2032.00,12.43
1633,934.06,2033.00,5.32
1634,934.14,2034.00,10.26
1635,934.23,2035.00,9.12
1636,934.32,2036.00,9.26
1637,934.40,2037.00,8.17
1638,934.49,2038.00,10.37
1639,934.58,2039.00,6.94
1640,934.67,2040.00,7.13
1641,934.75,2041.00,7.00
1642,934.84,2042.00,8.33
1643,934.93,2043.00,8.33
1644,935.02,2044.00,8.18
1645,935.10,2045.00,8.51
1646,935.19,2046.00,6.05
1647,935.28,2047.00,10.00
1648,935.37,2048.00,8.63
1649,935.45,2049.00,9.17
1650,935.54,2050.00,10.77
1651,935.63,2051.00,11.08
1652,935.72,2052.00,12.88
1653,935.80,2053.00,13.16
1654,935.89,2054.00,13.83
1655,935.98,2055.00,13.71
1656,936.07,2056.00,13.76
1657,936.15,2057.00,14.07
1658,936.24,2058.00,13.73
1659,936.33,2059.00,14.77
1660,936.42,2060.00,14.54
1661,936.51,2061.00,14.61
1662,936.59,2062.00,13.72
1663,936.68,2063.00,15.31
1664,936.77,2064.00,17.29
1665,936.86,2065.00,18.54
1666,936.94,2066.00,20.66
1667,937.03,2067.00,24.31
1668,937.12,2068.00,26.01
1669,937.21,2069.00,30.41
1670,937.30,2070.00,31.26
1671,937.38,2071.00,42.00
1672,937.47,2072.00,40.93
1673,937.56,2073.00,40.27
1674,937.65,2074.00,41.32
1675,937.73,2075.00,40.51
1676,937.82,2076.00,39.37
1677,937.91,2077.00,38.40
1678,938.00,2078.00,28.24
1679,938.09,2079.00,29.29
1680,938.17,2080.00,20.18
1681,938.26,2081.00,20.98
1682,938.35,2082.00,15.15
1683,938.44,2083.00,17.13
1684,938.53,2084.00,11.30
1685,938.61,2085.00,11.71
1686,938.70,2086.00,9.55
1687,938.79,2087.00,9.17
1688,938.88,2088.00,12.00
1689,938.97,2089.00,9.76
1690,939.06,2090.00,11.32
1691,939.14,2091.00,11.83
1692,939.23,2092.00,11.60
1693,939.32,2093.00,11.71
1694,939.41,2094.00,10.58
1695,939.50,2095.00,14.66
1696,939.58,2096.00,11.91
1697,939.67,2097.00,10.60
1698,939.76,2098.00,11.24
1699,939.85,2099.00,10.39
1700,939.94,2100.00,10.65
1701,940.03,2101.00,12.04
1702,940.11,2102.00,9.41
1703,940.20,2103.00,5.28
1704,940.29,2104.00,10.08
1705,940.38,2105.00,7.13
1706,940.47,2106.00,8.19
1707,940.56,2107.00,7.44
1708,940.65,2108.00,11.09
1709,940.73,2109.00,8.86
1710,940.82,2110.00,9.67
1711,940.91,2111.00,13.07
1712,941.00,2112.00,10.35
1713,941.09,2113.00,11.02
1714,941.18,2114.00,11.36
1715,941.27,2115.00,11.95
1716,941.35,2116.00,8.34
1717,941.44,2117.00,9.79
1718,941.53,2118.00,11.18
1719,941.62,2119.00,5.15
1720,941.71,2120.00,12.16
1721,941.80,2121.00,12.12
1722,941.89,2122.00,11.07
1723,941.97,2123.00,5.21
1724,942.06,2124.00,7.01
1725,942.15,2125.00,11.13
1726,942.24,2126.00,8.09
1727,942.33,2127.00,3.66
1728,942.42,2128.00,5.33
1729,942.51,2129.00,5.56
1730,942.60,2130.00,4.93
1731,942.68,2131.00,9.03
1732,942.77,2132.00,4.00
1733,942.86,2133.00,4.86
1734,942.95,2134.00,5.38
1735,943.04,2135.00,4.28
1736,943.13,2136.00,6.49
1737,943.22,2137.00,8.48
1738,943.31,2138.00,7.77
1739,943.40,2139.00,9.78
1740,943.49,2140.00,5.70
1741,943.57,2141.00,7.72
1742,943.66,2142.00,11.19
1743,943.75,2143.00,9.87
1744,943.84,2144.00,9.38
1745,943.93,2145.00,5.70
1746,944.02,2146.00,6.77
1747,944.11,2147.00,5.33
1748,944.20,2148.00,4.82
1749,944.29,2149.00,5.07
1750,944.38,2150.00,6.45
1751,944.47,2151.00,2.60
1752,944.55,2152.00,6.60
1753,944.64,2153.00,6.49
1754,944.73,2154.00,7.30
1755,944.82,2155.00,6.30
1756,944.91,2156.00,8.84
1757,945.00,2157.00,9.61
1758,945.09,2158.00,7.83
1759,945.18,2159.00,11.33
1760,945.27,2160.00,9.65
1761,945.36,2161.00,7.85
1762,945.45,2162.00,8.30
1763,945.54,2163.00,9.57
1764,945.63,2164.00,7.35
1765,945.72,2165.00,10.34
1766,945.81,2166.00,8.91
1767,945.89,2167.00,8.18
1768,945.98,2168.00,7.13
1769,946.07,2169.00,6.32
1770,946.16,2170.00,7.56
1771,946.25,2171.00,9.78
1772,946.34,2172.00,7.08
1773,946.43,2173.00,3.54
1774,946.52,2174.00,6.66
1775,946.61,2175.00,5.52
1776,946.70,2176.00,4.12
1777,946.79,2177.00,6.45
1778,946.88,2178.00,6.43
1779,946.97,2179.00,4.27
1780,947.06,2180.00,7.67
1781,947.15,2181.00,10.38
1782,947.24,2182.00,10.15
1783,947.33,2183.00,7.23
1784,947.42,2184.00,8.35
1785,947.51,2185.00,7.56
1786,947.60,2186.00,5.93
1787,947.69,2187.00,8.81
1788,947.78,2188.00,8.42
1789,947.87,2189.00,9.08
1790,947.96,2190.00,7.77
1791,948.05,2191.00,8.18
1792,948.14,2192.00,10.43
1793,948.23,2193.00,6.75
1794,948.32,2194.00,11.61
1795,948.41,2195.00,9.17
1796,948.50,2196.00,11.43
1797,948.59,2197.00,7.26
1798,948.68,2198.00,12.35
1799,948.77,2199.00,11.25
1800,948.86,2200.00,9.12
1801,948.95,2201.00,8.35
1802,949.04,2202.00,10.42
1803,949.13,2203.00,7.93
1804,949.22,2204.00,9.34
1805,949.31,2205.00,7.87
1806,949.40,2206.00,9.82
1807,949.49,2207.00,6.12
1808,949.58,2208.00,10.47
1809,949.67,2209.00,7.15
1810,949.76,2210.00,8.97
1811,949.85,2211.00,8.00
1812,949.94,2212.00,7.05
1813,950.03,2213.00,5.20
1814,950.12,2214.00,6.33
1815,950.21,2215.00,7.59
1816,950.30,2216.00,5.84
1817,950.39,2217.00,6.36
1818,950.48,2218.00,7.35
1819,950.57,2219.00,6.94
1820,950.66,2220.00,8.80
1821,950.75,2221.00,8.11
1822,950.84,2222.00,9.04
1823,950.93,2223.00,6.55
1824,951.02,2224.00,12.46
1825,951.11,2225.00,9.47
1826,951.20,2226.00,11.87
1827,951.29,2227.00,10.69
1828,951.38,2228.00,10.57
1829,951.47,2229.00,7.99
1830,951.57,2230.00,9.01
1831,951.66,2231.00,10.59
1832,951.75,2232.00,9.70
1833,951.84,2233.00,4.32
1834,951.93,2234.00,6.97
1835,952.02,2235.00,7.99
1836,952.11,2236.00,7.28
1837,952.20,2237.00,4.77
1838,952.29,2238.00,7.08
1839,952.38,2239.00,6.65
1840,952.47,2240.00,9.23
1841,952.56,2241.00,5.22
1842,952.65,2242.00,9.39
1843,952.74,2243.00,11.51
1844,952.83,2244.00,11.44
1845,952.93,2245.00,8.39
1846,953.02,2246.00,13.37
1847,953.11,2247.00,13.64
1848,953.20,2248.00,11.96
1849,953.29,2249.00,11.21
1850,953.38,2250.00,14.04
1851,953.47,2251.00,13.02
1852,953.56,2252.00,9.14
1853,953.65,2253.00,7.46
1854,953.74,2254.00,9.00
1855,953.83,2255.00,9.06
1856,953.93,2256.00,8.20
1857,954.02,2257.00,7.44
1858,954.11,2258.00,5.69
1859,954.20,2259.00,5.65
1860,954.29,2260.00,4.85
1861,954.38,2261.00,6.87
1862,954.47,2262.00,5.73
1863,954.56,2263.00,6.32
1864,954.65,2264.00,8.12
1865,954.75,2265.00,5.07
1866,954.84,2266.00,7.43
1867,954.93,2267.00,10.95
1868,955.02,2268.00,7.84
1869,955.11,2269.00,7.71
1870,955.20,2270.00,13.00
1871,955.29,2271.00,12.66
1872,955.38,2272.00,6.52
1873,955.47,2273.00,7.35
1874,955.57,2274.00,3.91
1875,955.66,2275.00,4.38
1876,955.75,2276.00,2.35
1877,955.84,2277.00,2.49
1878,955.93,2278.00,2.78
1879,956.02,2279.00,0.73
1880,956.11,2280.00,2.68
1881,956.21,2281.00,2.92
1882,956.30,2282.00,2.66
1883,956.39,2283.00,2.47
1884,956.48,2284.00,2.70
1885,956.57,2285.00,3.96
1886,956.66,2286.00,4.48
1887,956.75,2287.00,4.22
1888,956.85,2288.00,5.49
1889,956.94,2289.00,5.60
1890,957.03,2290.00,2.02
1891,957.12,2291.00,3.56
1892,957.21,2292.00,6.45
1893,957.30,2293.00,5.30
1894,957.40,2294.00,10.57
1895,957.49,2295.00,10.11
1896,957.58,2296.00,10.81
1897,957.67,2297.00,8.38
1898,957.76,2298.00,7.43
1899,957.85,2299.00,9.03
1900,957.95,2300.00,9.03
1901,958.04,2301.00,8.01
1902,958.13,2302.00,8.53
1903,958.22,2303.00,8.44
1904,958.31,2304.00,5.48
1905,958.41,2305.00,6.98
1906,958.50,2306.00,7.11
1907,958.59,2307.00,4.83
1908,958.68,2308.00,9.97
1909,958.77,2309.00,7.10
1910,958.86,2310.00,6.59
1911,958.96,2311.00,4.91
1912,959.05,2312.00,7.93
1913,959.14,2313.00,5.71
1914,959.23,2314.00,5.75
1915,959.32,2315.00,5.56
1916,959.42,2316.00,5.08
1917,959.51,2317.00,3.73
1918,959.60,2318.00,7.09
1919,959.69,2319.00,5.05
1920,959.79,2320.00,8.81
1921,959.88,2321.00,5.54
1922,959.97,2322.00,7.78
1923,960.06,2323.00,6.86
1924,960.15,2324.00,7.41
1925,960.25,2325.00,4.66
1926,960.34,2326.00,4.44
1927,960.43,2327.00,5.74
1928,960.52,2328.00,3.71
1929,960.61,2329.00,2.31
1930,960.71,2330.00,0.38
1931,960.80,2331.00,1.11
1932,960.89,2332.00,1.56
1933,960.98,2333.00,2.52
1934,961.08,2334.00,3.74
1935,961.17,2335.00,2.72
1936,961.26,2336.00,3.58
1937,961.35,2337.00,6.30
1938,961.45,2338.00,3.90
1939,961.54,2339.00,7.37
1940,961.63,2340.00,7.80
1941,961.72,2341.00,5.20
1942,961.82,2342.00,8.26
1943,961.91,2343.00,10.90
1944,962.00,2344.00,9.21
1945,962.09,2345.00,5.00
1946,962.19,2346.00,4.98
1947,962.28,2347.00,5.33
1948,962.37,2348.00,6.73
1949,962.46,2349.00,5.38
1950,962.56,2350.00,6.23
1951,962.65,2351.00,6.06
1952,962.74,2352.00,5.57
1953,962.83,2353.00,4.64
1954,962.93,2354.00,8.07
1955,963.02,2355.00,4.78
1956,963.11,2356.00,7.72
1957,963.21,2357.00,6.80
1958,963.30,2358.00,3.98
1959,963.39,2359.00,5.90
1960,963.48,2360.00,2.87
1961,963.58,2361.00,0.38
1962,963.67,2362.00,6.00
1963,963.76,2363.00,5.40
1964,963.86,2364.00,5.67
1965,963.95,2365.00,3.17
1966,964.04,2366.00,6.79
1967,964.13,2367.00,5.97
1968,964.23,2368.00,4.57
1969,964.32,2369.00,3.62
1970,964.41,2370.00,2.47
1971,964.51,2371.00,3.99
1972,964.60,2372.00,2.88
1973,964.69,2373.00,3.87
1974,964.79,2374.00,2.26
1975,964.88,2375.00,2.86
1976,964.97,2376.00,2.82
1977,965.06,2377.00,1.79
1978,965.16,2378.00,4.40
1979,965.25,2379.00,3.69
1980,965.34,2380.00,3.65
1981,965.44,2381.00,4.56
1982,965.53,2382.00,4.47
1983,965.62,2383.00,6.90
1984,965.72,2384.00,5.03
1985,965.81,2385.00,6.33
1986,965.90,2386.00,12.04
1987,966.00,2387.00,8.31
1988,966.09,2388.00,7.74
1989,966.18,2389.00,12.39
1990,966.28,2390.00,10.51
1991,966.37,2391.00,8.88
1992,966.46,2392.00,10.74
1993,966.56,2393.00,10.45
1994,966.65,2394.00,10.17
1995,966.74,2395.00,11.36
1996,966.84,2396.00,10.34
1997,966.93,2397.00,13.00
1998,967.02,2398.00,12.58
1999,967.12,2399.00,9.56
2000,967.21,2400.00,13.17
