Pixel,Wavelength,Wavenumber,Processed
0,810.44,400.00,10570.02
1,810.50,401.00,10945.89
2,810.57,402.00,11260.27
3,810.64,403.00,11369.45
4,810.70,404.00,11256.25
5,810.77,405.00,10983.18
6,810.83,406.00,10604.81
7,810.90,407.00,10041.42
8,810.96,408.00,9409.57
9,811.03,409.00,8776.45
10,811.10,410.00,7997.33
11,811.16,411.00,7329.58
12,811.23,412.00,6654.40
13,811.29,413.00,6035.09
14,811.36,414.00,5462.52
15,811.42,415.00,5095.67
16,811.49,416.00,4658.23
17,811.56,417.00,4365.00
18,811.62,418.00,4042.67
19,811.69,419.00,3867.83
20,811.75,420.00,3631.64
21,811.82,421.00,3407.57
22,811.89,422.00,3223.45
23,811.95,423.00,2989.01
24,812.02,424.00,2823.28
25,812.08,425.00,2630.38
26,812.15,426.00,2561.11
27,812.22,427.00,2428.71
28,812.28,428.00,2345.81
29,812.35,429.00,2303.44
30,812.41,430.00,2345.72
31,812.48,431.00,2314.65
32,812.55,432.00,2382.71
33,812.61,433.00,2620.96
34,812.68,434.00,2804.34
35,812.74,435.00,3157.29
36,812.81,436.00,3396.63
37,812.88,437.00,3837.65
38,812.94,438.00,4226.36
39,813.01,439.00,4691.04
40,813.07,440.00,5026.29
41,813.14,441.00,5369.15
42,813.21,442.00,5449.48
43,813.27,443.00,5497.31
44,813.34,444.00,5237.41
45,813.40,445.00,4898.28
46,813.47,446.00,4329.28
47,813.54,447.00,3716.98
48,813.60,448.00,3068.28
49,813.67,449.00,2459.39
50,813.74,450.00,1932.34
51,813.80,451.00,1569.95
52,813.87,452.00,1245.16
53,813.93,453.00,975.78
54,814.00,454.00,778.55
55,814.07,455.00,673.67
56,814.13,456.00,601.59
57,814.20,457.00,561.56
58,814.27,458.00,542.29
59,814.33,459.00,595.63
60,814.40,460.00,545.55
61,814.46,461.00,616.26
62,814.53,462.00,646.58
63,814.60,463.00,623.97
64,814.66,464.00,672.24
65,814.73,465.00,661.87
66,814.80,466.00,658.90
67,814.86,467.00,684.08
68,814.93,468.00,722.74
69,815.00,469.00,754.82
70,815.06,470.00,735.65
71,815.13,471.00,717.71
72,815.20,472.00,714.25
73,815.26,473.00,668.41
74,815.33,474.00,646.65
75,815.39,475.00,613.55
76,815.46,476.00,641.50
77,815.53,477.00,604.22
78,815.59,478.00,612.76
79,815.66,479.00,658.54
80,815.73,480.00,602.73
81,815.79,481.00,643.98
82,815.86,482.00,631.96
83,815.93,483.00,660.96
84,815.99,484.00,735.69
85,816.06,485.00,784.61
86,816.13,486.00,862.71
87,816.19,487.00,996.20
88,816.26,488.00,1057.68
89,816.33,489.00,1250.05
90,816.39,490.00,1357.84
91,816.46,491.00,1473.07
92,816.53,492.00,1549.31
93,816.59,493.00,1684.60
94,816.66,494.00,1697.44
95,816.73,495.00,1792.74
96,816.79,496.00,1848.21
97,816.86,497.00,1877.89
98,816.93,498.00,1859.99
99,816.99,499.00,1862.24
100,817.06,500.00,1809.44
101,817.13,501.00,1701.98
102,817.19,502.00,1650.70
103,817.26,503.00,1584.16
104,817.33,504.00,1552.36
105,817.39,505.00,1524.75
106,817.46,506.00,1541.22
107,817.53,507.00,1547.20
108,817.59,508.00,1619.01
109,817.66,509.00,1661.75
110,817.73,510.00,1771.16
111,817.80,511.00,1947.59
112,817.86,512.00,2192.50
113,817.93,513.00,2501.88
114,818.00,514.00,2750.57
115,818.06,515.00,3213.65
116,818.13,516.00,3694.32
117,818.20,517.00,4292.97
118,818.26,518.00,4873.54
119,818.33,519.00,5607.42
120,818.40,520.00,6365.52
121,818.46,521.00,7178.00
122,818.53,522.00,7870.28
123,818.60,523.00,8572.88
124,818.67,524.00,9307.85
125,818.73,525.00,9825.35
126,818.80,526.00,10223.69
127,818.87,527.00,10553.70
128,818.93,528.00,10765.11
129,819.00,529.00,10825.83
130,819.07,530.00,10721.42
131,819.14,531.00,10585.51
132,819.20,532.00,10464.52
133,819.27,533.00,10220.37
134,819.34,534.00,10066.76
135,819.40,535.00,9867.23
136,819.47,536.00,9779.85
137,819.54,537.00,9714.37
138,819.60,538.00,9725.84
139,819.67,539.00,9786.68
140,819.74,540.00,9832.08
141,819.81,541.00,10028.39
142,819.87,542.00,10220.47
143,819.94,543.00,10500.44
144,820.01,544.00,10715.92
145,820.08,545.00,11071.79
146,820.14,546.00,11281.10
147,820.21,547.00,11494.87
148,820.28,548.00,11628.10
149,820.34,549.00,11670.24
150,820.41,550.00,11635.24
151,820.48,551.00,11426.72
152,820.55,552.00,11021.91
153,820.61,553.00,10591.51
154,820.68,554.00,9967.68
155,820.75,555.00,9260.64
156,820.82,556.00,8487.71
157,820.88,557.00,7726.25
158,820.95,558.00,6906.33
159,821.02,559.00,6218.12
160,821.09,560.00,5498.02
161,821.15,561.00,4935.82
162,821.22,562.00,4371.78
163,821.29,563.00,3892.40
164,821.36,564.00,3486.34
165,821.42,565.00,3154.70
166,821.49,566.00,2912.45
167,821.56,567.00,2688.86
168,821.63,568.00,2552.83
169,821.69,569.00,2460.53
170,821.76,570.00,2448.34
171,821.83,571.00,2488.01
172,821.90,572.00,2564.15
173,821.96,573.00,2660.79
174,822.03,574.00,2735.59
175,822.10,575.00,2949.40
176,822.17,576.00,3134.08
177,822.23,577.00,3290.56
178,822.30,578.00,3465.33
179,822.37,579.00,3685.35
180,822.44,580.00,3793.27
181,822.50,581.00,3949.04
182,822.57,582.00,3864.51
183,822.64,583.00,3806.01
184,822.71,584.00,3692.82
185,822.77,585.00,3476.59
186,822.84,586.00,3242.43
187,822.91,587.00,2925.34
188,822.98,588.00,2580.77
189,823.05,589.00,2254.27
190,823.11,590.00,1936.66
191,823.18,591.00,1659.59
192,823.25,592.00,1388.79
193,823.32,593.00,1227.84
194,823.38,594.00,1107.33
195,823.45,595.00,985.55
196,823.52,596.00,932.41
197,823.59,597.00,851.92
198,823.66,598.00,840.45
199,823.72,599.00,793.82
200,823.79,600.00,821.52
201,823.86,601.00,792.28
202,823.93,602.00,839.40
203,823.99,603.00,907.71
204,824.06,604.00,904.02
205,824.13,605.00,960.25
206,824.20,606.00,996.35
207,824.27,607.00,990.96
208,824.33,608.00,1015.39
209,824.40,609.00,1053.07
210,824.47,610.00,999.61
211,824.54,611.00,1096.02
212,824.61,612.00,1018.98
213,824.67,613.00,1056.32
214,824.74,614.00,1056.06
215,824.81,615.00,1070.07
216,824.88,616.00,1050.12
217,824.95,617.00,1083.40
218,825.01,618.00,1024.81
219,825.08,619.00,1087.86
220,825.15,620.00,1150.53
221,825.22,621.00,1217.83
222,825.29,622.00,1291.27
223,825.35,623.00,1384.67
224,825.42,624.00,1557.02
225,825.49,625.00,1721.89
226,825.56,626.00,1919.81
227,825.63,627.00,2259.96
228,825.70,628.00,2482.11
229,825.76,629.00,2994.83
230,825.83,630.00,3428.19
231,825.90,631.00,3899.98
232,825.97,632.00,4373.21
233,826.04,633.00,5074.58
234,826.10,634.00,5601.41
235,826.17,635.00,6292.51
236,826.24,636.00,6822.44
237,826.31,637.00,7347.62
238,826.38,638.00,7622.02
239,826.45,639.00,7908.16
240,826.51,640.00,8003.86
241,826.58,641.00,7826.68
242,826.65,642.00,7611.82
243,826.72,643.00,7214.34
244,826.79,644.00,6804.51
245,826.86,645.00,6317.52
246,826.92,646.00,5702.48
247,826.99,647.00,5181.01
248,827.06,648.00,4617.08
249,827.13,649.00,4131.41
250,827.20,650.00,3631.95
251,827.27,651.00,3281.58
252,827.34,652.00,2940.71
253,827.40,653.00,2597.27
254,827.47,654.00,2318.19
255,827.54,655.00,2096.22
256,827.61,656.00,1901.08
257,827.68,657.00,1680.96
258,827.75,658.00,1516.88
259,827.81,659.00,1387.60
260,827.88,660.00,1267.33
261,827.95,661.00,1180.36
262,828.02,662.00,1143.18
263,828.09,663.00,1112.22
264,828.16,664.00,1059.30
265,828.23,665.00,1029.52
266,828.29,666.00,1010.75
267,828.36,667.00,1064.60
268,828.43,668.00,1089.71
269,828.50,669.00,1162.73
270,828.57,670.00,1196.07
271,828.64,671.00,1286.72
272,828.71,672.00,1368.60
273,828.78,673.00,1491.69
274,828.84,674.00,1585.07
275,828.91,675.00,1710.32
276,828.98,676.00,1845.39
277,829.05,677.00,1932.24
278,829.12,678.00,2002.78
279,829.19,679.00,2102.75
280,829.26,680.00,2150.27
281,829.32,681.00,2103.60
282,829.39,682.00,2084.42
283,829.46,683.00,2044.46
284,829.53,684.00,2022.08
285,829.60,685.00,1949.97
286,829.67,686.00,1917.61
287,829.74,687.00,1840.28
288,829.81,688.00,1844.81
289,829.88,689.00,1795.88
290,829.94,690.00,1831.99
291,830.01,691.00,1804.37
292,830.08,692.00,1887.73
293,830.15,693.00,1925.27
294,830.22,694.00,1973.52
295,830.29,695.00,2067.63
296,830.36,696.00,2169.51
297,830.43,697.00,2237.07
298,830.50,698.00,2357.80
299,830.56,699.00,2409.06
300,830.63,700.00,2368.89
301,830.70,701.00,2396.85
302,830.77,702.00,2333.03
303,830.84,703.00,2201.12
304,830.91,704.00,2136.57
305,830.98,705.00,2030.39
306,831.05,706.00,1901.48
307,831.12,707.00,1761.06
308,831.19,708.00,1632.09
309,831.26,709.00,1515.33
310,831.32,710.00,1378.47
311,831.39,711.00,1303.02
312,831.46,712.00,1221.77
313,831.53,713.00,1193.43
314,831.60,714.00,1126.30
315,831.67,715.00,1100.49
316,831.74,716.00,1106.72
317,831.81,717.00,1105.50
318,831.88,718.00,1124.75
319,831.95,719.00,1127.41
320,832.02,720.00,1164.36
321,832.09,721.00,1231.72
322,832.15,722.00,1231.19
323,832.22,723.00,1351.44
324,832.29,724.00,1393.65
325,832.36,725.00,1457.69
326,832.43,726.00,1515.42
327,832.50,727.00,1600.13
328,832.57,728.00,1691.13
329,832.64,729.00,1727.90
330,832.71,730.00,1786.13
331,832.78,731.00,1903.79
332,832.85,732.00,1959.70
333,832.92,733.00,2125.25
334,832.99,734.00,2145.73
335,833.06,735.00,2314.91
336,833.13,736.00,2373.62
337,833.19,737.00,2544.63
338,833.26,738.00,2563.40
339,833.33,739.00,2687.84
340,833.40,740.00,2687.48
341,833.47,741.00,2709.11
342,833.54,742.00,2613.82
343,833.61,743.00,2584.39
344,833.68,744.00,2434.76
345,833.75,745.00,2385.46
346,833.82,746.00,2249.78
347,833.89,747.00,2144.63
348,833.96,748.00,1966.94
349,834.03,749.00,1830.63
350,834.10,750.00,1627.60
351,834.17,751.00,1527.39
352,834.24,752.00,1345.74
353,834.31,753.00,1262.34
354,834.38,754.00,1158.80
355,834.45,755.00,1064.72
356,834.52,756.00,967.39
357,834.59,757.00,928.52
358,834.65,758.00,838.76
359,834.72,759.00,808.69
360,834.79,760.00,759.80
361,834.86,761.00,758.11
362,834.93,762.00,722.81
363,835.00,763.00,672.21
364,835.07,764.00,711.02
365,835.14,765.00,661.56
366,835.21,766.00,705.30
367,835.28,767.00,681.82
368,835.35,768.00,671.28
369,835.42,769.00,676.84
370,835.49,770.00,615.99
371,835.56,771.00,594.07
372,835.63,772.00,585.16
373,835.70,773.00,535.95
374,835.77,774.00,531.37
375,835.84,775.00,560.17
376,835.91,776.00,544.80
377,835.98,777.00,597.81
378,836.05,778.00,628.52
379,836.12,779.00,661.22
380,836.19,780.00,668.03
381,836.26,781.00,753.69
382,836.33,782.00,780.70
383,836.40,783.00,813.89
384,836.47,784.00,864.11
385,836.54,785.00,862.87
386,836.61,786.00,774.31
387,836.68,787.00,693.81
388,836.75,788.00,634.72
389,836.82,789.00,534.93
390,836.89,790.00,478.35
391,836.96,791.00,405.89
392,837.03,792.00,307.62
393,837.10,793.00,267.07
394,837.17,794.00,216.21
395,837.24,795.00,178.15
396,837.31,796.00,157.16
397,837.38,797.00,127.12
398,837.45,798.00,117.57
399,837.52,799.00,99.96
400,837.59,800.00,84.24
401,837.66,801.00,95.10
402,837.73,802.00,102.82
403,837.80,803.00,101.18
404,837.87,804.00,116.23
405,837.94,805.00,136.07
406,838.01,806.00,152.62
407,838.08,807.00,168.78
408,838.15,808.00,218.25
409,838.22,809.00,243.82
410,838.29,810.00,277.32
411,838.36,811.00,320.83
412,838.43,812.00,331.42
413,838.50,813.00,358.59
414,838.57,814.00,361.74
415,838.64,815.00,376.68
416,838.72,816.00,351.55
417,838.79,817.00,332.76
418,838.86,818.00,364.56
419,838.93,819.00,333.91
420,839.00,820.00,344.04
421,839.07,821.00,282.09
422,839.14,822.00,275.18
423,839.21,823.00,233.50
424,839.28,824.00,218.67
425,839.35,825.00,216.72
426,839.42,826.00,181.00
427,839.49,827.00,161.11
428,839.56,828.00,170.66
429,839.63,829.00,185.09
430,839.70,830.00,185.16
431,839.77,831.00,267.01
432,839.84,832.00,316.23
433,839.91,833.00,396.48
434,839.98,834.00,544.15
435,840.05,835.00,793.46
436,840.12,836.00,1118.83
437,840.19,837.00,1633.20
438,840.27,838.00,2366.82
439,840.34,839.00,3467.23
440,840.41,840.00,4976.79
441,840.48,841.00,6887.05
442,840.55,842.00,9204.15
443,840.62,843.00,11829.60
444,840.69,844.00,14527.71
445,840.76,845.00,16859.71
446,840.83,846.00,18835.71
447,840.90,847.00,19884.43
448,840.97,848.00,20079.36
449,841.04,849.00,19363.26
450,841.11,850.00,18040.84
451,841.18,851.00,16234.74
452,841.26,852.00,14210.86
453,841.33,853.00,12197.74
454,841.40,854.00,10309.72
455,841.47,855.00,8761.83
456,841.54,856.00,7450.66
457,841.61,857.00,6337.48
458,841.68,858.00,5574.47
459,841.75,859.00,4952.02
460,841.82,860.00,4567.41
461,841.89,861.00,4380.82
462,841.96,862.00,4241.15
463,842.03,863.00,4333.90
464,842.11,864.00,4379.77
465,842.18,865.00,4619.50
466,842.25,866.00,4815.60
467,842.32,867.00,5202.62
468,842.39,868.00,5504.66
469,842.46,869.00,5688.31
470,842.53,870.00,5928.91
471,842.60,871.00,6009.08
472,842.67,872.00,6046.25
473,842.74,873.00,5741.87
474,842.82,874.00,5440.68
475,842.89,875.00,4971.12
476,842.96,876.00,4583.57
477,843.03,877.00,4028.19
478,843.10,878.00,3555.08
479,843.17,879.00,3111.56
480,843.24,880.00,2729.17
481,843.31,881.00,2405.27
482,843.38,882.00,2003.74
483,843.45,883.00,1794.39
484,843.53,884.00,1539.86
485,843.60,885.00,1368.72
486,843.67,886.00,1238.55
487,843.74,887.00,1152.93
488,843.81,888.00,1031.13
489,843.88,889.00,983.92
490,843.95,890.00,897.20
491,844.02,891.00,915.84
492,844.10,892.00,912.51
493,844.17,893.00,953.44
494,844.24,894.00,935.09
495,844.31,895.00,985.52
496,844.38,896.00,1027.35
497,844.45,897.00,1129.28
498,844.52,898.00,1194.72
499,844.59,899.00,1314.48
500,844.67,900.00,1457.13
501,844.74,901.00,1581.11
502,844.81,902.00,1733.57
503,844.88,903.00,1963.72
504,844.95,904.00,2207.27
505,845.02,905.00,2510.70
506,845.09,906.00,2840.15
507,845.17,907.00,3264.44
508,845.24,908.00,3607.74
509,845.31,909.00,4063.08
510,845.38,910.00,4634.78
511,845.45,911.00,5168.43
512,845.52,912.00,5740.93
513,845.59,913.00,6356.22
514,845.67,914.00,6820.35
515,845.74,915.00,7246.23
516,845.81,916.00,7595.87
517,845.88,917.00,7770.94
518,845.95,918.00,7873.14
519,846.02,919.00,7694.84
520,846.10,920.00,7360.74
521,846.17,921.00,6915.59
522,846.24,922.00,6313.12
523,846.31,923.00,5667.11
524,846.38,924.00,5166.19
525,846.45,925.00,4620.49
526,846.53,926.00,4152.80
527,846.60,927.00,3735.31
528,846.67,928.00,3428.84
529,846.74,929.00,3193.14
530,846.81,930.00,3034.63
531,846.88,931.00,2895.22
532,846.96,932.00,2912.44
533,847.03,933.00,2944.94
534,847.10,934.00,3080.67
535,847.17,935.00,3201.30
536,847.24,936.00,3456.56
537,847.31,937.00,3711.23
538,847.39,938.00,3950.45
539,847.46,939.00,4196.93
540,847.53,940.00,4390.50
541,847.60,941.00,4495.69
542,847.67,942.00,4503.97
543,847.75,943.00,4479.99
544,847.82,944.00,4324.73
545,847.89,945.00,4143.44
546,847.96,946.00,3763.44
547,848.03,947.00,3394.19
548,848.10,948.00,2928.27
549,848.18,949.00,2638.51
550,848.25,950.00,2191.25
551,848.32,951.00,1867.67
552,848.39,952.00,1643.44
553,848.46,953.00,1432.61
554,848.54,954.00,1215.01
555,848.61,955.00,1091.44
556,848.68,956.00,968.31
557,848.75,957.00,897.98
558,848.82,958.00,751.20
559,848.90,959.00,721.50
560,848.97,960.00,653.13
561,849.04,961.00,585.43
562,849.11,962.00,561.84
563,849.18,963.00,513.55
564,849.26,964.00,497.17
565,849.33,965.00,499.90
566,849.40,966.00,486.99
567,849.47,967.00,492.37
568,849.55,968.00,502.65
569,849.62,969.00,484.59
570,849.69,970.00,474.70
571,849.76,971.00,498.96
572,849.83,972.00,515.59
573,849.91,973.00,516.82
574,849.98,974.00,533.11
575,850.05,975.00,603.31
576,850.12,976.00,695.87
577,850.20,977.00,769.07
578,850.27,978.00,845.10
579,850.34,979.00,955.25
580,850.41,980.00,1020.09
581,850.48,981.00,1086.70
582,850.56,982.00,1199.06
583,850.63,983.00,1345.60
584,850.70,984.00,1343.60
585,850.77,985.00,1433.15
586,850.85,986.00,1460.15
587,850.92,987.00,1464.30
588,850.99,988.00,1505.92
589,851.06,989.00,1421.38
590,851.14,990.00,1390.80
591,851.21,991.00,1347.49
592,851.28,992.00,1263.06
593,851.35,993.00,1225.62
594,851.43,994.00,1201.35
595,851.50,995.00,1247.73
596,851.57,996.00,1281.12
597,851.64,997.00,1365.74
598,851.72,998.00,1457.35
599,851.79,999.00,1603.02
600,851.86,1000.00,1822.44
601,851.93,1001.00,2123.66
602,852.01,1002.00,2437.27
603,852.08,1003.00,2759.74
604,852.15,1004.00,3221.82
605,852.22,1005.00,3713.06
606,852.30,1006.00,4213.38
607,852.37,1007.00,4735.96
608,852.44,1008.00,5149.89
609,852.51,1009.00,5467.74
610,852.59,1010.00,5605.55
611,852.66,1011.00,5730.02
612,852.73,1012.00,5730.45
613,852.81,1013.00,5388.95
614,852.88,1014.00,5133.42
615,852.95,1015.00,4734.10
616,853.02,1016.00,4362.77
617,853.10,1017.00,4000.16
618,853.17,1018.00,3556.25
619,853.24,1019.00,3184.93
620,853.32,1020.00,2872.02
621,853.39,1021.00,2651.51
622,853.46,1022.00,2488.11
623,853.53,1023.00,2394.23
624,853.61,1024.00,2433.19
625,853.68,1025.00,2493.35
626,853.75,1026.00,2645.15
627,853.83,1027.00,3008.10
628,853.90,1028.00,3288.47
629,853.97,1029.00,3885.04
630,854.04,1030.00,4554.39
631,854.12,1031.00,5454.93
632,854.19,1032.00,6394.89
633,854.26,1033.00,7585.08
634,854.34,1034.00,8842.09
635,854.41,1035.00,10067.37
636,854.48,1036.00,11154.18
637,854.55,1037.00,12114.38
638,854.63,1038.00,12896.78
639,854.70,1039.00,13149.32
640,854.77,1040.00,13075.23
641,854.85,1041.00,12693.54
642,854.92,1042.00,12050.31
643,854.99,1043.00,11227.75
644,855.07,1044.00,10307.23
645,855.14,1045.00,9428.10
646,855.21,1046.00,8426.44
647,855.29,1047.00,7568.00
648,855.36,1048.00,6824.27
649,855.43,1049.00,6137.88
650,855.51,1050.00,5603.94
651,855.58,1051.00,5234.60
652,855.65,1052.00,4919.49
653,855.72,1053.00,4748.23
654,855.80,1054.00,4521.26
655,855.87,1055.00,4494.01
656,855.94,1056.00,4454.74
657,856.02,1057.00,4484.72
658,856.09,1058.00,4546.23
659,856.16,1059.00,4617.43
660,856.24,1060.00,4720.64
661,856.31,1061.00,4663.80
662,856.38,1062.00,4734.46
663,856.46,1063.00,4628.22
664,856.53,1064.00,4623.15
665,856.60,1065.00,4603.18
666,856.68,1066.00,4590.87
667,856.75,1067.00,4482.67
668,856.82,1068.00,4445.88
669,856.90,1069.00,4377.56
670,856.97,1070.00,4404.13
671,857.04,1071.00,4347.39
672,857.12,1072.00,4276.56
673,857.19,1073.00,4334.96
674,857.27,1074.00,4437.78
675,857.34,1075.00,4503.58
676,857.41,1076.00,4588.62
677,857.49,1077.00,4759.62
678,857.56,1078.00,4986.78
679,857.63,1079.00,5179.07
680,857.71,1080.00,5276.05
681,857.78,1081.00,5527.06
682,857.85,1082.00,5747.92
683,857.93,1083.00,5957.31
684,858.00,1084.00,6090.34
685,858.07,1085.00,6238.22
686,858.15,1086.00,6415.70
687,858.22,1087.00,6529.46
688,858.30,1088.00,6539.79
689,858.37,1089.00,6675.98
690,858.44,1090.00,6687.74
691,858.52,1091.00,6895.79
692,858.59,1092.00,6814.21
693,858.66,1093.00,6931.63
694,858.74,1094.00,6846.07
695,858.81,1095.00,6814.45
696,858.89,1096.00,6764.03
697,858.96,1097.00,6738.84
698,859.03,1098.00,6581.50
699,859.11,1099.00,6520.73
700,859.18,1100.00,6404.80
701,859.25,1101.00,6239.90
702,859.33,1102.00,6140.37
703,859.40,1103.00,5868.70
704,859.48,1104.00,5719.05
705,859.55,1105.00,5633.00
706,859.62,1106.00,5527.29
707,859.70,1107.00,5607.29
708,859.77,1108.00,5511.49
709,859.85,1109.00,5660.12
710,859.92,1110.00,5786.79
711,859.99,1111.00,6058.46
712,860.07,1112.00,6276.48
713,860.14,1113.00,6793.22
714,860.22,1114.00,7273.29
715,860.29,1115.00,7968.93
716,860.36,1116.00,8646.71
717,860.44,1117.00,9550.87
718,860.51,1118.00,10473.58
719,860.59,1119.00,11484.44
720,860.66,1120.00,12421.01
721,860.73,1121.00,13503.53
722,860.81,1122.00,14538.60
723,860.88,1123.00,15477.14
724,860.96,1124.00,15956.04
725,861.03,1125.00,16440.57
726,861.10,1126.00,16390.70
727,861.18,1127.00,16089.25
728,861.25,1128.00,15439.12
729,861.33,1129.00,14511.93
730,861.40,1130.00,13273.41
731,861.47,1131.00,11977.92
732,861.55,1132.00,10758.77
733,861.62,1133.00,9385.87
734,861.70,1134.00,8081.40
735,861.77,1135.00,6972.10
736,861.85,1136.00,5856.97
737,861.92,1137.00,5074.61
738,861.99,1138.00,4314.00
739,862.07,1139.00,3741.50
740,862.14,1140.00,3249.97
741,862.22,1141.00,2837.48
742,862.29,1142.00,2507.52
743,862.37,1143.00,2349.29
744,862.44,1144.00,2195.40
745,862.52,1145.00,2112.99
746,862.59,1146.00,2089.57
747,862.66,1147.00,2143.76
748,862.74,1148.00,2255.28
749,862.81,1149.00,2403.97
750,862.89,1150.00,2568.14
751,862.96,1151.00,2873.18
752,863.04,1152.00,3094.87
753,863.11,1153.00,3459.95
754,863.19,1154.00,3643.05
755,863.26,1155.00,4065.49
756,863.33,1156.00,4297.20
757,863.41,1157.00,4618.30
758,863.48,1158.00,4835.42
759,863.56,1159.00,4950.92
760,863.63,1160.00,5254.59
761,863.71,1161.00,5260.90
762,863.78,1162.00,5360.93
763,863.86,1163.00,5423.33
764,863.93,1164.00,5306.95
765,864.01,1165.00,5203.74
766,864.08,1166.00,5004.52
767,864.15,1167.00,4785.09
768,864.23,1168.00,4541.02
769,864.30,1169.00,4295.47
770,864.38,1170.00,3895.55
771,864.45,1171.00,3697.34
772,864.53,1172.00,3363.05
773,864.60,1173.00,3080.77
774,864.68,1174.00,2736.42
775,864.75,1175.00,2440.26
776,864.83,1176.00,2228.11
777,864.90,1177.00,1995.87
778,864.98,1178.00,1744.36
779,865.05,1179.00,1592.16
780,865.13,1180.00,1326.92
781,865.20,1181.00,1113.66
782,865.28,1182.00,1036.20
783,865.35,1183.00,775.53
784,865.43,1184.00,707.92
785,865.50,1185.00,558.15
786,865.58,1186.00,488.97
787,865.65,1187.00,453.49
788,865.73,1188.00,397.52
789,865.80,1189.00,393.04
790,865.88,1190.00,350.80
791,865.95,1191.00,335.20
792,866.03,1192.00,359.01
793,866.10,1193.00,333.27
794,866.18,1194.00,356.10
795,866.25,1195.00,364.37
796,866.33,1196.00,425.55
797,866.40,1197.00,490.84
798,866.48,1198.00,585.56
799,866.55,1199.00,687.92
800,866.63,1200.00,780.71
801,866.70,1201.00,962.26
802,866.78,1202.00,1122.98
803,866.85,1203.00,1392.99
804,866.93,1204.00,1606.25
805,867.00,1205.00,1890.91
806,867.08,1206.00,2114.51
807,867.15,1207.00,2414.31
808,867.23,1208.00,2603.37
809,867.30,1209.00,2643.42
810,867.38,1210.00,2652.53
811,867.45,1211.00,2501.55
812,867.53,1212.00,2299.37
813,867.60,1213.00,2118.01
814,867.68,1214.00,1850.53
815,867.75,1215.00,1619.59
816,867.83,1216.00,1435.56
817,867.90,1217.00,1278.25
818,867.98,1218.00,1149.14
819,868.06,1219.00,1044.48
820,868.13,1220.00,981.21
821,868.21,1221.00,963.13
822,868.28,1222.00,985.93
823,868.36,1223.00,1011.85
824,868.43,1224.00,1126.87
825,868.51,1225.00,1252.15
826,868.58,1226.00,1451.76
827,868.66,1227.00,1792.65
828,868.73,1228.00,2145.64
829,868.81,1229.00,2684.09
830,868.89,1230.00,3278.17
831,868.96,1231.00,3911.84
832,869.04,1232.00,4582.53
833,869.11,1233.00,5436.77
834,869.19,1234.00,6099.29
835,869.26,1235.00,6804.74
836,869.34,1236.00,7210.93
837,869.41,1237.00,7642.00
838,869.49,1238.00,7628.87
839,869.57,1239.00,7625.81
840,869.64,1240.00,7283.47
841,869.72,1241.00,6863.54
842,869.79,1242.00,6266.61
843,869.87,1243.00,5702.34
844,869.94,1244.00,5111.09
845,870.02,1245.00,4557.95
846,870.09,1246.00,4060.25
847,870.17,1247.00,3608.99
848,870.25,1248.00,3268.10
849,870.32,1249.00,3043.27
850,870.40,1250.00,2811.28
851,870.47,1251.00,2680.87
852,870.55,1252.00,2581.59
853,870.63,1253.00,2578.78
854,870.70,1254.00,2555.34
855,870.78,1255.00,2622.66
856,870.85,1256.00,2673.59
857,870.93,1257.00,2808.16
858,871.00,1258.00,2898.47
859,871.08,1259.00,3060.43
860,871.16,1260.00,3218.32
861,871.23,1261.00,3308.81
862,871.31,1262.00,3398.25
863,871.38,1263.00,3494.92
864,871.46,1264.00,3494.25
865,871.54,1265.00,3550.68
866,871.61,1266.00,3463.24
867,871.69,1267.00,3401.68
868,871.76,1268.00,3279.24
869,871.84,1269.00,3121.61
870,871.92,1270.00,2952.68
871,871.99,1271.00,2791.93
872,872.07,1272.00,2619.23
873,872.14,1273.00,2418.60
874,872.22,1274.00,2260.83
875,872.30,1275.00,2073.13
876,872.37,1276.00,1891.24
877,872.45,1277.00,1816.68
878,872.52,1278.00,1653.75
879,872.60,1279.00,1574.60
880,872.68,1280.00,1415.47
881,872.75,1281.00,1352.96
882,872.83,1282.00,1253.68
883,872.91,1283.00,1185.96
884,872.98,1284.00,1159.00
885,873.06,1285.00,1048.31
886,873.13,1286.00,1068.96
887,873.21,1287.00,1006.38
888,873.29,1288.00,1049.20
889,873.36,1289.00,1055.95
890,873.44,1290.00,1050.68
891,873.52,1291.00,1081.25
892,873.59,1292.00,1042.23
893,873.67,1293.00,1056.07
894,873.74,1294.00,1032.89
895,873.82,1295.00,985.85
896,873.90,1296.00,975.21
897,873.97,1297.00,947.88
898,874.05,1298.00,893.78
899,874.13,1299.00,894.76
900,874.20,1300.00,873.05
901,874.28,1301.00,858.64
902,874.36,1302.00,832.33
903,874.43,1303.00,846.89
904,874.51,1304.00,881.05
905,874.58,1305.00,941.72
906,874.66,1306.00,962.77
907,874.74,1307.00,1159.19
908,874.81,1308.00,1142.70
909,874.89,1309.00,1245.44
910,874.97,1310.00,1351.49
911,875.04,1311.00,1432.36
912,875.12,1312.00,1553.14
913,875.20,1313.00,1656.27
914,875.27,1314.00,1785.99
915,875.35,1315.00,1904.03
916,875.43,1316.00,2078.73
917,875.50,1317.00,2219.16
918,875.58,1318.00,2331.25
919,875.66,1319.00,2470.27
920,875.73,1320.00,2651.19
921,875.81,1321.00,2859.15
922,875.89,1322.00,3083.46
923,875.96,1323.00,3144.71
924,876.04,1324.00,3217.52
925,876.12,1325.00,3225.53
926,876.19,1326.00,3238.68
927,876.27,1327.00,3206.45
928,876.35,1328.00,3193.81
929,876.42,1329.00,3222.45
930,876.50,1330.00,3087.33
931,876.58,1331.00,3278.65
932,876.65,1332.00,3205.18
933,876.73,1333.00,3302.32
934,876.81,1334.00,3360.43
935,876.89,1335.00,3407.88
936,876.96,1336.00,3666.53
937,877.04,1337.00,3784.89
938,877.12,1338.00,4026.18
939,877.19,1339.00,4231.84
940,877.27,1340.00,4568.23
941,877.35,1341.00,4851.61
942,877.42,1342.00,5235.35
943,877.50,1343.00,5573.38
944,877.58,1344.00,5824.07
945,877.65,1345.00,6122.86
946,877.73,1346.00,6320.75
947,877.81,1347.00,6559.77
948,877.89,1348.00,6687.59
949,877.96,1349.00,6721.87
950,878.04,1350.00,6681.68
951,878.12,1351.00,6616.94
952,878.19,1352.00,6454.56
953,878.27,1353.00,6267.11
954,878.35,1354.00,5969.89
955,878.43,1355.00,5776.57
956,878.50,1356.00,5615.08
957,878.58,1357.00,5439.81
958,878.66,1358.00,5304.98
959,878.73,1359.00,5295.71
960,878.81,1360.00,5276.79
961,878.89,1361.00,5354.09
962,878.97,1362.00,5383.04
963,879.04,1363.00,5536.84
964,879.12,1364.00,5626.26
965,879.20,1365.00,5833.53
966,879.28,1366.00,6051.09
967,879.35,1367.00,6334.80
968,879.43,1368.00,6547.62
969,879.51,1369.00,6877.49
970,879.58,1370.00,7021.72
971,879.66,1371.00,7316.04
972,879.74,1372.00,7433.27
973,879.82,1373.00,7514.82
974,879.89,1374.00,7437.41
975,879.97,1375.00,7302.42
976,880.05,1376.00,7241.04
977,880.13,1377.00,6927.10
978,880.20,1378.00,6682.53
979,880.28,1379.00,6278.41
980,880.36,1380.00,5908.72
981,880.44,1381.00,5546.81
982,880.51,1382.00,5070.79
983,880.59,1383.00,4658.25
984,880.67,1384.00,4316.03
985,880.75,1385.00,4009.26
986,880.82,1386.00,3749.26
987,880.90,1387.00,3492.50
988,880.98,1388.00,3359.69
989,881.06,1389.00,3213.00
990,881.13,1390.00,3086.04
991,881.21,1391.00,3018.24
992,881.29,1392.00,2962.02
993,881.37,1393.00,2842.91
994,881.45,1394.00,2819.17
995,881.52,1395.00,2795.48
996,881.60,1396.00,2817.21
997,881.68,1397.00,2858.91
998,881.76,1398.00,2908.56
999,881.83,1399.00,2959.45
1000,881.91,1400.00,3022.17
1001,881.99,1401.00,3029.53
1002,882.07,1402.00,3033.83
1003,882.15,1403.00,3069.16
1004,882.22,1404.00,3036.20
1005,882.30,1405.00,3052.58
1006,882.38,1406.00,2959.34
1007,882.46,1407.00,2949.69
1008,882.53,1408.00,2862.43
1009,882.61,1409.00,2852.31
1010,882.69,1410.00,2811.25
1011,882.77,1411.00,2796.71
1012,882.85,1412.00,2769.25
1013,882.92,1413.00,2785.24
1014,883.00,1414.00,2744.16
1015,883.08,1415.00,2778.33
1016,883.16,1416.00,2806.77
1017,883.24,1417.00,2930.52
1018,883.31,1418.00,2981.68
1019,883.39,1419.00,3035.59
1020,883.47,1420.00,3137.70
1021,883.55,1421.00,3260.16
1022,883.63,1422.00,3355.49
1023,883.70,1423.00,3436.46
1024,883.78,1424.00,3546.87
1025,883.86,1425.00,3676.64
1026,883.94,1426.00,3713.04
1027,884.02,1427.00,3767.00
1028,884.10,1428.00,3767.24
1029,884.17,1429.00,3776.88
1030,884.25,1430.00,3754.05
1031,884.33,1431.00,3775.32
1032,884.41,1432.00,3723.32
1033,884.49,1433.00,3691.22
1034,884.56,1434.00,3616.99
1035,884.64,1435.00,3520.41
1036,884.72,1436.00,3420.97
1037,884.80,1437.00,3249.14
1038,884.88,1438.00,3194.85
1039,884.96,1439.00,3059.03
1040,885.03,1440.00,2934.13
1041,885.11,1441.00,2826.84
1042,885.19,1442.00,2674.13
1043,885.27,1443.00,2600.98
1044,885.35,1444.00,2499.02
1045,885.43,1445.00,2444.67
1046,885.50,1446.00,2425.11
1047,885.58,1447.00,2431.77
1048,885.66,1448.00,2500.07
1049,885.74,1449.00,2635.50
1050,885.82,1450.00,2821.06
1051,885.90,1451.00,3023.51
1052,885.98,1452.00,3335.74
1053,886.05,1453.00,3761.51
1054,886.13,1454.00,4188.70
1055,886.21,1455.00,4793.36
1056,886.29,1456.00,5408.56
1057,886.37,1457.00,6192.76
1058,886.45,1458.00,6862.57
1059,886.52,1459.00,7641.83
1060,886.60,1460.00,8079.07
1061,886.68,1461.00,8577.18
1062,886.76,1462.00,8667.10
1063,886.84,1463.00,8784.48
1064,886.92,1464.00,8603.55
1065,887.00,1465.00,8247.89
1066,887.08,1466.00,7706.61
1067,887.15,1467.00,7209.66
1068,887.23,1468.00,6539.59
1069,887.31,1469.00,6019.11
1070,887.39,1470.00,5412.03
1071,887.47,1471.00,4987.61
1072,887.55,1472.00,4492.67
1073,887.63,1473.00,4047.39
1074,887.71,1474.00,3684.08
1075,887.78,1475.00,3383.40
1076,887.86,1476.00,3148.35
1077,887.94,1477.00,2872.68
1078,888.02,1478.00,2574.63
1079,888.10,1479.00,2429.99
1080,888.18,1480.00,2212.19
1081,888.26,1481.00,1978.56
1082,888.34,1482.00,1767.29
1083,888.42,1483.00,1541.53
1084,888.49,1484.00,1442.56
1085,888.57,1485.00,1266.94
1086,888.65,1486.00,1075.74
1087,888.73,1487.00,944.26
1088,888.81,1488.00,789.74
1089,888.89,1489.00,761.55
1090,888.97,1490.00,637.59
1091,889.05,1491.00,553.78
1092,889.13,1492.00,520.40
1093,889.21,1493.00,472.16
1094,889.28,1494.00,421.93
1095,889.36,1495.00,394.36
1096,889.44,1496.00,377.48
1097,889.52,1497.00,348.80
1098,889.60,1498.00,308.36
1099,889.68,1499.00,312.10
1100,889.76,1500.00,263.91
1101,889.84,1501.00,260.52
1102,889.92,1502.00,198.93
1103,890.00,1503.00,170.69
1104,890.08,1504.00,146.29
1105,890.15,1505.00,117.33
1106,890.23,1506.00,110.11
1107,890.31,1507.00,102.38
1108,890.39,1508.00,83.61
1109,890.47,1509.00,69.14
1110,890.55,1510.00,71.26
1111,890.63,1511.00,62.30
1112,890.71,1512.00,52.54
1113,890.79,1513.00,56.67
1114,890.87,1514.00,41.64
1115,890.95,1515.00,50.42
1116,891.03,1516.00,45.86
1117,891.11,1517.00,48.15
1118,891.19,1518.00,41.65
1119,891.27,1519.00,51.72
1120,891.35,1520.00,43.54
1121,891.42,1521.00,45.94
1122,891.50,1522.00,66.63
1123,891.58,1523.00,56.05
1124,891.66,1524.00,77.53
1125,891.74,1525.00,63.82
1126,891.82,1526.00,63.74
1127,891.90,1527.00,59.38
1128,891.98,1528.00,64.92
1129,892.06,1529.00,61.17
1130,892.14,1530.00,53.26
1131,892.22,1531.00,45.47
1132,892.30,1532.00,47.46
1133,892.38,1533.00,32.98
1134,892.46,1534.00,39.98
1135,892.54,1535.00,31.49
1136,892.62,1536.00,43.08
1137,892.70,1537.00,45.99
1138,892.78,1538.00,52.55
1139,892.86,1539.00,72.89
1140,892.94,1540.00,95.77
1141,893.02,1541.00,102.65
1142,893.10,1542.00,135.46
1143,893.18,1543.00,155.91
1144,893.26,1544.00,202.26
1145,893.34,1545.00,255.87
1146,893.42,1546.00,211.69
1147,893.50,1547.00,246.98
1148,893.58,1548.00,240.21
1149,893.66,1549.00,289.83
1150,893.73,1550.00,229.80
1151,893.81,1551.00,201.75
1152,893.89,1552.00,159.98
1153,893.97,1553.00,143.51
1154,894.05,1554.00,119.95
1155,894.13,1555.00,103.93
1156,894.21,1556.00,106.47
1157,894.29,1557.00,80.33
1158,894.37,1558.00,59.24
1159,894.45,1559.00,61.20
1160,894.53,1560.00,52.91
1161,894.61,1561.00,48.01
1162,894.69,1562.00,36.28
1163,894.77,1563.00,39.26
1164,894.85,1564.00,35.76
1165,894.93,1565.00,44.79
1166,895.01,1566.00,40.55
1167,895.09,1567.00,36.11
1168,895.18,1568.00,32.63
1169,895.26,1569.00,28.17
1170,895.34,1570.00,8.58
1171,895.42,1571.00,25.32
1172,895.50,1572.00,19.94
1173,895.58,1573.00,16.91
1174,895.66,1574.00,21.00
1175,895.74,1575.00,16.28
1176,895.82,1576.00,8.84
1177,895.90,1577.00,16.13
1178,895.98,1578.00,17.39
1179,896.06,1579.00,10.98
1180,896.14,1580.00,18.45
1181,896.22,1581.00,21.51
1182,896.30,1582.00,23.27
1183,896.38,1583.00,11.37
1184,896.46,1584.00,19.51
1185,896.54,1585.00,18.57
1186,896.62,1586.00,7.44
1187,896.70,1587.00,8.40
1188,896.78,1588.00,14.25
1189,896.86,1589.00,5.38
1190,896.94,1590.00,10.62
1191,897.02,1591.00,7.37
1192,897.10,1592.00,9.41
1193,897.18,1593.00,9.87
1194,897.26,1594.00,11.46
1195,897.34,1595.00,14.60
1196,897.42,1596.00,21.95
1197,897.50,1597.00,30.22
1198,897.59,1598.00,30.43
1199,897.67,1599.00,36.26
1200,897.75,1600.00,56.83
1201,897.83,1601.00,47.50
1202,897.91,1602.00,55.58
1203,897.99,1603.00,46.61
1204,898.07,1604.00,57.48
1205,898.15,1605.00,34.60
1206,898.23,1606.00,37.27
1207,898.31,1607.00,29.66
1208,898.39,1608.00,29.18
1209,898.47,1609.00,25.41
1210,898.55,1610.00,28.45
1211,898.63,1611.00,25.51
1212,898.71,1612.00,39.86
1213,898.80,1613.00,42.01
1214,898.88,1614.00,36.76
1215,898.96,1615.00,49.90
1216,899.04,1616.00,58.25
1217,899.12,1617.00,72.35
1218,899.20,1618.00,80.26
1219,899.28,1619.00,70.98
1220,899.36,1620.00,100.00
1221,899.44,1621.00,80.12
1222,899.52,1622.00,62.28
1223,899.60,1623.00,74.74
1224,899.69,1624.00,50.03
1225,899.77,1625.00,64.63
1226,899.85,1626.00,47.31
1227,899.93,1627.00,46.31
1228,900.01,1628.00,56.40
1229,900.09,1629.00,56.33
1230,900.17,1630.00,49.62
1231,900.25,1631.00,60.89
1232,900.33,1632.00,53.51
1233,900.41,1633.00,55.99
1234,900.50,1634.00,59.06
1235,900.58,1635.00,50.79
1236,900.66,1636.00,60.25
1237,900.74,1637.00,57.30
1238,900.82,1638.00,49.32
1239,900.90,1639.00,49.85
1240,900.98,1640.00,58.49
1241,901.06,1641.00,52.06
1242,901.14,1642.00,48.20
1243,901.23,1643.00,40.23
1244,901.31,1644.00,49.39
1245,901.39,1645.00,35.28
1246,901.47,1646.00,46.85
1247,901.55,1647.00,43.56
1248,901.63,1648.00,43.41
1249,901.71,1649.00,37.39
1250,901.79,1650.00,40.04
1251,901.88,1651.00,44.03
1252,901.96,1652.00,37.97
1253,902.04,1653.00,45.21
1254,902.12,1654.00,35.80
1255,902.20,1655.00,54.30
1256,902.28,1656.00,47.01
1257,902.36,1657.00,58.60
1258,902.45,1658.00,53.06
1259,902.53,1659.00,53.34
1260,902.61,1660.00,66.61
1261,902.69,1661.00,55.89
1262,902.77,1662.00,65.15
1263,902.85,1663.00,59.01
1264,902.93,1664.00,62.76
1265,903.02,1665.00,51.53
1266,903.10,1666.00,47.64
1267,903.18,1667.00,40.79
1268,903.26,1668.00,40.24
1269,903.34,1669.00,30.17
1270,903.42,1670.00,30.94
1271,903.51,1671.00,21.54
1272,903.59,1672.00,21.44
1273,903.67,1673.00,21.81
1274,903.75,1674.00,19.07
1275,903.83,1675.00,25.63
1276,903.91,1676.00,23.48
1277,904.00,1677.00,24.98
1278,904.08,1678.00,28.97
1279,904.16,1679.00,36.53
1280,904.24,1680.00,48.72
1281,904.32,1681.00,43.10
1282,904.40,1682.00,53.02
1283,904.49,1683.00,61.19
1284,904.57,1684.00,72.10
1285,904.65,1685.00,56.91
1286,904.73,1686.00,69.13
1287,904.81,1687.00,65.11
1288,904.90,1688.00,65.34
1289,904.98,1689.00,65.50
1290,905.06,1690.00,54.75
1291,905.14,1691.00,58.57
1292,905.22,1692.00,55.91
1293,905.31,1693.00,46.00
1294,905.39,1694.00,39.91
1295,905.47,1695.00,35.64
1296,905.55,1696.00,36.83
1297,905.63,1697.00,31.08
1298,905.72,1698.00,28.82
1299,905.80,1699.00,31.40
1300,905.88,1700.00,25.98
1301,905.96,1701.00,21.65
1302,906.04,1702.00,25.44
1303,906.13,1703.00,21.78
1304,906.21,1704.00,33.08
1305,906.29,1705.00,27.77
1306,906.37,1706.00,28.30
1307,906.45,1707.00,32.42
1308,906.54,1708.00,34.48
1309,906.62,1709.00,41.59
1310,906.70,1710.00,43.05
1311,906.78,1711.00,49.45
1312,906.87,1712.00,49.66
1313,906.95,1713.00,44.74
1314,907.03,1714.00,49.88
1315,907.11,1715.00,45.89
1316,907.19,1716.00,45.88
1317,907.28,1717.00,38.93
1318,907.36,1718.00,56.15
1319,907.44,1719.00,50.85
1320,907.52,1720.00,67.91
1321,907.61,1721.00,59.18
1322,907.69,1722.00,82.89
1323,907.77,1723.00,85.51
1324,907.85,1724.00,101.57
1325,907.94,1725.00,104.15
1326,908.02,1726.00,113.78
1327,908.10,1727.00,112.78
1328,908.18,1728.00,122.81
1329,908.27,1729.00,126.85
1330,908.35,1730.00,125.59
1331,908.43,1731.00,124.09
1332,908.51,1732.00,118.65
1333,908.60,1733.00,108.72
1334,908.68,1734.00,98.55
1335,908.76,1735.00,85.43
1336,908.84,1736.00,80.18
1337,908.93,1737.00,75.00
1338,909.01,1738.00,52.26
1339,909.09,1739.00,58.76
1340,909.17,1740.00,41.30
1341,909.26,1741.00,37.81
1342,909.34,1742.00,38.84
1343,909.42,1743.00,33.36
1344,909.50,1744.00,29.72
1345,909.59,1745.00,30.36
1346,909.67,1746.00,27.48
1347,909.75,1747.00,34.46
1348,909.84,1748.00,29.68
1349,909.92,1749.00,28.98
1350,910.00,1750.00,27.84
1351,910.08,1751.00,33.51
1352,910.17,1752.00,35.66
1353,910.25,1753.00,41.16
1354,910.33,1754.00,34.14
1355,910.42,1755.00,42.50
1356,910.50,1756.00,34.02
1357,910.58,1757.00,34.64
1358,910.66,1758.00,36.88
1359,910.75,1759.00,32.09
1360,910.83,1760.00,28.56
1361,910.91,1761.00,21.37
1362,911.00,1762.00,17.39
1363,911.08,1763.00,20.41
1364,911.16,1764.00,22.27
1365,911.24,1765.00,15.87
1366,911.33,1766.00,22.05
1367,911.41,1767.00,26.55
1368,911.49,1768.00,26.98
1369,911.58,1769.00,30.23
1370,911.66,1770.00,32.13
1371,911.74,1771.00,44.02
1372,911.83,1772.00,47.49
1373,911.91,1773.00,35.47
1374,911.99,1774.00,49.00
1375,912.08,1775.00,41.40
1376,912.16,1776.00,42.54
1377,912.24,1777.00,50.22
1378,912.33,1778.00,42.32
1379,912.41,1779.00,44.27
1380,912.49,1780.00,48.93
1381,912.58,1781.00,40.78
1382,912.66,1782.00,38.74
1383,912.74,1783.00,40.71
1384,912.83,1784.00,44.14
1385,912.91,1785.00,37.30
1386,912.99,1786.00,33.90
1387,913.08,1787.00,34.66
1388,913.16,1788.00,28.16
1389,913.24,1789.00,30.24
1390,913.33,1790.00,32.87
1391,913.41,1791.00,30.41
1392,913.49,1792.00,26.78
1393,913.58,1793.00,25.20
1394,913.66,1794.00,18.58
1395,913.74,1795.00,24.44
1396,913.83,1796.00,27.32
1397,913.91,1797.00,19.99
1398,913.99,1798.00,26.15
1399,914.08,1799.00,33.86
1400,914.16,1800.00,34.60
1401,914.24,1801.00,40.38
1402,914.33,1802.00,51.18
1403,914.41,1803.00,54.39
1404,914.49,1804.00,50.51
1405,914.58,1805.00,46.26
1406,914.66,1806.00,54.16
1407,914.75,1807.00,51.59
1408,914.83,1808.00,57.99
1409,914.91,1809.00,48.40
1410,915.00,1810.00,34.02
1411,915.08,1811.00,46.40
1412,915.16,1812.00,32.89
1413,915.25,1813.00,28.97
1414,915.33,1814.00,32.74
1415,915.42,1815.00,36.80
1416,915.50,1816.00,30.89
1417,915.58,1817.00,30.04
1418,915.67,1818.00,32.05
1419,915.75,1819.00,39.71
1420,915.83,1820.00,26.78
1421,915.92,1821.00,37.65
1422,916.00,1822.00,46.57
1423,916.09,1823.00,53.18
1424,916.17,1824.00,43.90
1425,916.25,1825.00,46.85
1426,916.34,1826.00,31.72
1427,916.42,1827.00,30.54
1428,916.51,1828.00,25.82
1429,916.59,1829.00,32.01
1430,916.67,1830.00,26.03
1431,916.76,1831.00,23.99
1432,916.84,1832.00,19.25
1433,916.93,1833.00,22.55
1434,917.01,1834.00,20.14
1435,917.09,1835.00,22.35
1436,917.18,1836.00,15.45
1437,917.26,1837.00,20.28
1438,917.35,1838.00,16.62
1439,917.43,1839.00,16.65
1440,917.52,1840.00,16.90
1441,917.60,1841.00,18.34
1442,917.68,1842.00,33.15
1443,917.77,1843.00,37.47
1444,917.85,1844.00,42.18
1445,917.94,1845.00,31.84
1446,918.02,1846.00,34.11
1447,918.11,1847.00,65.34
1448,918.19,1848.00,50.46
1449,918.27,1849.00,55.23
1450,918.36,1850.00,43.58
1451,918.44,1851.00,75.65
1452,918.53,1852.00,59.20
1453,918.61,1853.00,43.87
1454,918.70,1854.00,50.08
1455,918.78,1855.00,35.46
1456,918.86,1856.00,30.77
1457,918.95,1857.00,26.67
1458,919.03,1858.00,21.31
1459,919.12,1859.00,18.27
1460,919.20,1860.00,18.90
1461,919.29,1861.00,17.85
1462,919.37,1862.00,20.40
1463,919.46,1863.00,25.49
1464,919.54,1864.00,14.93
1465,919.62,1865.00,22.82
1466,919.71,1866.00,16.27
1467,919.79,1867.00,18.83
1468,919.88,1868.00,23.68
1469,919.96,1869.00,18.31
1470,920.05,1870.00,25.15
1471,920.13,1871.00,23.52
1472,920.22,1872.00,26.05
1473,920.30,1873.00,21.69
1474,920.39,1874.00,9.98
1475,920.47,1875.00,14.20
1476,920.56,1876.00,20.28
1477,920.64,1877.00,21.28
1478,920.73,1878.00,21.70
1479,920.81,1879.00,16.30
1480,920.90,1880.00,10.28
1481,920.98,1881.00,11.17
1482,921.06,1882.00,7.57
1483,921.15,1883.00,7.47
1484,921.23,1884.00,8.82
1485,921.32,1885.00,3.75
1486,921.40,1886.00,14.38
1487,921.49,1887.00,13.30
1488,921.57,1888.00,13.67
1489,921.66,1889.00,16.86
1490,921.74,1890.00,13.01
1491,921.83,1891.00,21.06
1492,921.91,1892.00,28.30
1493,922.00,1893.00,30.88
1494,922.08,1894.00,37.72
1495,922.17,1895.00,33.89
1496,922.25,1896.00,34.15
1497,922.34,1897.00,29.35
1498,922.42,1898.00,16.95
1499,922.51,1899.00,45.96
1500,922.59,1900.00,18.66
1501,922.68,1901.00,25.19
1502,922.76,1902.00,20.25
1503,922.85,1903.00,21.17
1504,922.93,1904.00,11.41
1505,923.02,1905.00,5.55
1506,923.11,1906.00,8.93
1507,923.19,1907.00,5.76
1508,923.28,1908.00,13.88
1509,923.36,1909.00,11.72
1510,923.45,1910.00,17.78
1511,923.53,1911.00,15.71
1512,923.62,1912.00,17.11
1513,923.70,1913.00,20.33
1514,923.79,1914.00,13.21
1515,923.87,1915.00,19.13
1516,923.96,1916.00,18.48
1517,924.04,1917.00,24.86
1518,924.13,1918.00,31.25
1519,924.21,1919.00,34.10
1520,924.30,1920.00,29.01
1521,924.39,1921.00,20.36
1522,924.47,1922.00,20.68
1523,924.56,1923.00,25.48
1524,924.64,1924.00,25.03
1525,924.73,1925.00,24.20
1526,924.81,1926.00,24.15
1527,924.90,1927.00,28.94
1528,924.98,1928.00,32.22
1529,925.07,1929.00,25.83
1530,925.16,1930.00,18.23
1531,925.24,1931.00,27.51
1532,925.33,1932.00,16.50
1533,925.41,1933.00,21.85
1534,925.50,1934.00,27.47
1535,925.58,1935.00,35.61
1536,925.67,1936.00,26.31
1537,925.75,1937.00,20.53
1538,925.84,1938.00,25.06
1539,925.93,1939.00,19.23
1540,926.01,1940.00,34.05
1541,926.10,1941.00,29.48
1542,926.18,1942.00,30.20
1543,926.27,1943.00,33.45
1544,926.35,1944.00,24.51
1545,926.44,1945.00,21.66
1546,926.53,1946.00,18.07
1547,926.61,1947.00,16.00
1548,926.70,1948.00,11.76
1549,926.78,1949.00,12.32
1550,926.87,1950.00,14.54
1551,926.96,1951.00,19.57
1552,927.04,1952.00,24.64
1553,927.13,1953.00,19.16
1554,927.21,1954.00,26.09
1555,927.30,1955.00,18.82
1556,927.39,1956.00,29.71
1557,927.47,1957.00,35.89
1558,927.56,1958.00,29.48
1559,927.64,1959.00,31.89
1560,927.73,1960.00,29.94
1561,927.82,1961.00,30.43
1562,927.90,1962.00,27.75
1563,927.99,1963.00,17.98
1564,928.07,1964.00,18.43
1565,928.16,1965.00,13.08
1566,928.25,1966.00,15.68
1567,928.33,1967.00,30.52
1568,928.42,1968.00,22.96
1569,928.51,1969.00,22.33
1570,928.59,1970.00,23.67
1571,928.68,1971.00,19.71
1572,928.76,1972.00,30.41
1573,928.85,1973.00,29.85
1574,928.94,1974.00,34.78
1575,929.02,1975.00,35.73
1576,929.11,1976.00,36.61
1577,929.20,1977.00,34.33
1578,929.28,1978.00,35.90
1579,929.37,1979.00,23.79
1580,929.45,1980.00,30.68
1581,929.54,1981.00,22.80
1582,929.63,1982.00,21.22
1583,929.71,1983.00,32.03
1584,929.80,1984.00,28.20
1585,929.89,1985.00,27.63
1586,929.97,1986.00,22.22
1587,930.06,1987.00,16.17
1588,930.15,1988.00,24.53
1589,930.23,1989.00,27.00
1590,930.32,1990.00,35.96
1591,930.41,1991.00,29.77
1592,930.49,1992.00,34.79
1593,930.58,1993.00,29.15
1594,930.67,1994.00,34.15
1595,930.75,1995.00,25.36
1596,930.84,1996.00,38.82
1597,930.93,1997.00,24.76
1598,931.01,1998.00,29.02
1599,931.10,1999.00,39.55
1600,931.19,2000.00,35.00
1601,931.27,2001.00,29.76
1602,931.36,2002.00,35.25
1603,931.45,2003.00,70.65
1604,931.53,2004.00,45.39
1605,931.62,2005.00,64.64
1606,931.71,2006.00,62.08
1607,931.79,2007.00,82.12
1608,931.88,2008.00,53.01
1609,931.97,2009.00,42.45
1610,932.05,2010.00,55.87
1611,932.14,2011.00,43.74
1612,932.23,2012.00,47.08
1613,932.31,2013.00,52.28
1614,932.40,2014.00,36.81
1615,932.49,2015.00,33.79
1616,932.57,2016.00,39.78
1617,932.66,2017.00,23.69
1618,932.75,2018.00,26.67
1619,932.84,2019.00,20.15
1620,932.92,2020.00,16.81
1621,933.01,2021.00,18.20
1622,933.10,2022.00,19.20
1623,933.18,2023.00,19.59
1624,933.27,2024.00,16.40
1625,933.36,2025.00,13.16
1626,933.45,2026.00,11.57
1627,933.53,2027.00,12.28
1628,933.62,2028.00,21.05
1629,933.71,2029.00,10.39
1630,933.79,2030.00,22.00
1631,933.88,2031.00,15.88
1632,933.97,2032.00,21.71
1633,934.06,2033.00,8.67
1634,934.14,2034.00,19.81
1635,934.23,2035.00,18.74
1636,934.32,2036.00,43.64
1637,934.40,2037.00,36.32
1638,934.49,2038.00,50.10
1639,934.58,2039.00,21.14
1640,934.67,2040.00,29.01
1641,934.75,2041.00,20.54
1642,934.84,2042.00,11.63
1643,934.93,2043.00,8.27
1644,935.02,2044.00,9.88
1645,935.10,2045.00,5.49
1646,935.19,2046.00,7.43
1647,935.28,2047.00,7.47
1648,935.37,2048.00,4.58
1649,935.45,2049.00,6.29
1650,935.54,2050.00,4.03
1651,935.63,2051.00,4.67
1652,935.72,2052.00,9.67
1653,935.80,2053.00,6.33
1654,935.89,2054.00,15.82
1655,935.98,2055.00,19.32
1656,936.07,2056.00,17.06
1657,936.15,2057.00,27.62
1658,936.24,2058.00,18.89
1659,936.33,2059.00,32.10
1660,936.42,2060.00,31.62
1661,936.51,2061.00,34.76
1662,936.59,2062.00,20.55
1663,936.68,2063.00,22.94
1664,936.77,2064.00,16.41
1665,936.86,2065.00,20.31
1666,936.94,2066.00,8.23
1667,937.03,2067.00,14.61
1668,937.12,2068.00,4.32
1669,937.21,2069.00,14.40
1670,937.30,2070.00,9.23
1671,937.38,2071.00,15.27
1672,937.47,2072.00,14.21
1673,937.56,2073.00,22.97
1674,937.65,2074.00,16.53
1675,937.73,2075.00,18.07
1676,937.82,2076.00,18.15
1677,937.91,2077.00,32.47
1678,938.00,2078.00,23.86
1679,938.09,2079.00,22.00
1680,938.17,2080.00,45.76
1681,938.26,2081.00,32.15
1682,938.35,2082.00,26.89
1683,938.44,2083.00,25.07
1684,938.53,2084.00,32.69
1685,938.61,2085.00,26.16
1686,938.70,2086.00,31.91
1687,938.79,2087.00,14.72
1688,938.88,2088.00,20.59
1689,938.97,2089.00,19.67
1690,939.06,2090.00,13.90
1691,939.14,2091.00,4.12
1692,939.23,2092.00,11.92
1693,939.32,2093.00,8.11
1694,939.41,2094.00,9.72
1695,939.50,2095.00,9.95
1696,939.58,2096.00,17.15
1697,939.67,2097.00,12.28
1698,939.76,2098.00,11.54
1699,939.85,2099.00,15.80
1700,939.94,2100.00,14.55
1701,940.03,2101.00,16.71
1702,940.11,2102.00,26.38
1703,940.20,2103.00,17.01
1704,940.29,2104.00,35.84
1705,940.38,2105.00,29.13
1706,940.47,2106.00,26.27
1707,940.56,2107.00,23.68
1708,940.65,2108.00,39.37
1709,940.73,2109.00,26.85
1710,940.82,2110.00,26.35
1711,940.91,2111.00,39.28
1712,941.00,2112.00,39.65
1713,941.09,2113.00,26.48
1714,941.18,2114.00,33.76
1715,941.27,2115.00,65.01
1716,941.35,2116.00,32.80
1717,941.44,2117.00,27.40
1718,941.53,2118.00,31.61
1719,941.62,2119.00,19.67
1720,941.71,2120.00,25.24
1721,941.80,2121.00,8.55
1722,941.89,2122.00,11.33
1723,941.97,2123.00,7.72
1724,942.06,2124.00,8.12
1725,942.15,2125.00,8.63
1726,942.24,2126.00,16.53
1727,942.33,2127.00,21.01
1728,942.42,2128.00,18.96
1729,942.51,2129.00,18.65
1730,942.60,2130.00,15.16
1731,942.68,2131.00,13.70
1732,942.77,2132.00,28.70
1733,942.86,2133.00,21.06
1734,942.95,2134.00,36.78
1735,943.04,2135.00,20.48
1736,943.13,2136.00,17.10
1737,943.22,2137.00,17.11
1738,943.31,2138.00,4.70
1739,943.40,2139.00,3.64
1740,943.49,2140.00,18.19
1741,943.57,2141.00,6.40
1742,943.66,2142.00,14.44
1743,943.75,2143.00,8.43
1744,943.84,2144.00,12.38
1745,943.93,2145.00,3.08
1746,944.02,2146.00,1.77
1747,944.11,2147.00,4.00
1748,944.20,2148.00,7.84
1749,944.29,2149.00,10.25
1750,944.38,2150.00,14.67
1751,944.47,2151.00,5.70
1752,944.55,2152.00,20.27
1753,944.64,2153.00,10.86
1754,944.73,2154.00,15.36
1755,944.82,2155.00,15.83
1756,944.91,2156.00,30.55
1757,945.00,2157.00,27.86
1758,945.09,2158.00,34.48
1759,945.18,2159.00,48.92
1760,945.27,2160.00,58.65
1761,945.36,2161.00,34.28
1762,945.45,2162.00,41.57
1763,945.54,2163.00,59.67
1764,945.63,2164.00,44.86
1765,945.72,2165.00,40.10
1766,945.81,2166.00,39.04
1767,945.89,2167.00,41.70
1768,945.98,2168.00,29.44
1769,946.07,2169.00,19.57
1770,946.16,2170.00,16.95
1771,946.25,2171.00,19.78
1772,946.34,2172.00,10.09
1773,946.43,2173.00,13.90
1774,946.52,2174.00,15.57
1775,946.61,2175.00,18.01
1776,946.70,2176.00,16.53
1777,946.79,2177.00,16.93
1778,946.88,2178.00,15.95
1779,946.97,2179.00,17.98
1780,947.06,2180.00,14.38
1781,947.15,2181.00,18.24
1782,947.24,2182.00,17.58
1783,947.33,2183.00,17.77
1784,947.42,2184.00,20.13
1785,947.51,2185.00,21.06
1786,947.60,2186.00,24.15
1787,947.69,2187.00,37.68
1788,947.78,2188.00,35.05
1789,947.87,2189.00,41.81
1790,947.96,2190.00,31.93
1791,948.05,2191.00,32.43
1792,948.14,2192.00,39.53
1793,948.23,2193.00,48.67
1794,948.32,2194.00,34.90
1795,948.41,2195.00,47.26
1796,948.50,2196.00,25.85
1797,948.59,2197.00,32.86
1798,948.68,2198.00,35.89
1799,948.77,2199.00,43.37
1800,948.86,2200.00,47.29
1801,948.95,2201.00,37.84
1802,949.04,2202.00,38.67
1803,949.13,2203.00,41.90
1804,949.22,2204.00,27.13
1805,949.31,2205.00,34.75
1806,949.40,2206.00,29.71
1807,949.49,2207.00,43.73
1808,949.58,2208.00,25.16
1809,949.67,2209.00,18.78
1810,949.76,2210.00,10.52
1811,949.85,2211.00,12.71
1812,949.94,2212.00,8.31
1813,950.03,2213.00,4.61
1814,950.12,2214.00,9.88
1815,950.21,2215.00,6.70
1816,950.30,2216.00,3.47
1817,950.39,2217.00,7.97
1818,950.48,2218.00,3.67
1819,950.57,2219.00,9.89
1820,950.66,2220.00,6.71
1821,950.75,2221.00,4.88
1822,950.84,2222.00,15.33
1823,950.93,2223.00,19.22
1824,951.02,2224.00,17.64
1825,951.11,2225.00,40.68
1826,951.20,2226.00,22.06
1827,951.29,2227.00,30.67
1828,951.38,2228.00,17.29
1829,951.47,2229.00,20.93
1830,951.57,2230.00,16.97
1831,951.66,2231.00,23.87
1832,951.75,2232.00,9.27
1833,951.84,2233.00,10.42
1834,951.93,2234.00,4.75
1835,952.02,2235.00,8.91
1836,952.11,2236.00,2.27
1837,952.20,2237.00,0.60
1838,952.29,2238.00,3.59
1839,952.38,2239.00,5.63
1840,952.47,2240.00,1.91
1841,952.56,2241.00,5.84
1842,952.65,2242.00,0.74
1843,952.74,2243.00,5.02
1844,952.83,2244.00,0.64
1845,952.93,2245.00,3.28
1846,953.02,2246.00,9.23
1847,953.11,2247.00,15.91
1848,953.20,2248.00,20.46
1849,953.29,2249.00,18.95
1850,953.38,2250.00,18.61
1851,953.47,2251.00,31.78
1852,953.56,2252.00,9.59
1853,953.65,2253.00,14.52
1854,953.74,2254.00,15.60
1855,953.83,2255.00,16.46
1856,953.93,2256.00,15.90
1857,954.02,2257.00,14.44
1858,954.11,2258.00,3.28
1859,954.20,2259.00,11.42
1860,954.29,2260.00,0.00
1861,954.38,2261.00,10.92
1862,954.47,2262.00,10.30
1863,954.56,2263.00,10.10
1864,954.65,2264.00,18.13
1865,954.75,2265.00,20.39
1866,954.84,2266.00,14.28
1867,954.93,2267.00,26.86
1868,955.02,2268.00,14.00
1869,955.11,2269.00,20.98
1870,955.20,2270.00,27.31
1871,955.29,2271.00,34.82
1872,955.38,2272.00,29.84
1873,955.47,2273.00,27.95
1874,955.57,2274.00,11.69
1875,955.66,2275.00,28.28
1876,955.75,2276.00,17.51
1877,955.84,2277.00,23.03
1878,955.93,2278.00,17.99
1879,956.02,2279.00,21.74
1880,956.11,2280.00,11.42
1881,956.21,2281.00,15.83
1882,956.30,2282.00,19.00
1883,956.39,2283.00,20.81
1884,956.48,2284.00,15.39
1885,956.57,2285.00,14.11
1886,956.66,2286.00,14.29
1887,956.75,2287.00,5.73
1888,956.85,2288.00,15.00
1889,956.94,2289.00,10.56
1890,957.03,2290.00,2.58
1891,957.12,2291.00,4.82
1892,957.21,2292.00,1.57
1893,957.30,2293.00,0.04
1894,957.40,2294.00,0.14
1895,957.49,2295.00,1.45
1896,957.58,2296.00,1.82
1897,957.67,2297.00,2.28
1898,957.76,2298.00,4.19
1899,957.85,2299.00,3.53
1900,957.95,2300.00,2.74
1901,958.04,2301.00,7.45
1902,958.13,2302.00,14.91
1903,958.22,2303.00,4.96
1904,958.31,2304.00,39.19
1905,958.41,2305.00,30.30
1906,958.50,2306.00,7.54
1907,958.59,2307.00,5.11
1908,958.68,2308.00,0.00
1909,958.77,2309.00,11.90
1910,958.86,2310.00,9.13
1911,958.96,2311.00,6.93
1912,959.05,2312.00,5.39
1913,959.14,2313.00,8.69
1914,959.23,2314.00,6.58
1915,959.32,2315.00,2.92
1916,959.42,2316.00,8.61
1917,959.51,2317.00,22.74
1918,959.60,2318.00,16.39
1919,959.69,2319.00,35.23
1920,959.79,2320.00,21.84
1921,959.88,2321.00,26.09
1922,959.97,2322.00,10.02
1923,960.06,2323.00,31.48
1924,960.15,2324.00,4.55
1925,960.25,2325.00,17.92
1926,960.34,2326.00,29.00
1927,960.43,2327.00,15.16
1928,960.52,2328.00,13.43
1929,960.61,2329.00,10.86
1930,960.71,2330.00,16.86
1931,960.80,2331.00,9.97
1932,960.89,2332.00,13.12
1933,960.98,2333.00,11.59
1934,961.08,2334.00,21.32
1935,961.17,2335.00,18.33
1936,961.26,2336.00,23.11
1937,961.35,2337.00,20.20
1938,961.45,2338.00,21.52
1939,961.54,2339.00,19.00
1940,961.63,2340.00,34.25
1941,961.72,2341.00,14.46
1942,961.82,2342.00,41.42
1943,961.91,2343.00,16.12
1944,962.00,2344.00,23.27
1945,962.09,2345.00,28.25
1946,962.19,2346.00,30.10
1947,962.28,2347.00,31.77
1948,962.37,2348.00,19.48
1949,962.46,2349.00,45.20
1950,962.56,2350.00,39.05
1951,962.65,2351.00,44.71
1952,962.74,2352.00,49.14
1953,962.83,2353.00,61.41
1954,962.93,2354.00,47.81
1955,963.02,2355.00,46.36
1956,963.11,2356.00,28.03
1957,963.21,2357.00,41.83
1958,963.30,2358.00,39.11
1959,963.39,2359.00,21.60
1960,963.48,2360.00,28.81
1961,963.58,2361.00,32.76
1962,963.67,2362.00,35.24
1963,963.76,2363.00,19.89
1964,963.86,2364.00,28.47
1965,963.95,2365.00,33.14
1966,964.04,2366.00,34.96
1967,964.13,2367.00,50.06
1968,964.23,2368.00,42.98
1969,964.32,2369.00,32.48
1970,964.41,2370.00,31.15
1971,964.51,2371.00,32.01
1972,964.60,2372.00,38.12
1973,964.69,2373.00,35.72
1974,964.79,2374.00,32.60
1975,964.88,2375.00,29.73
1976,964.97,2376.00,20.87
1977,965.06,2377.00,21.06
1978,965.16,2378.00,21.93
1979,965.25,2379.00,16.76
1980,965.34,2380.00,19.76
1981,965.44,2381.00,22.85
1982,965.53,2382.00,24.66
1983,965.62,2383.00,27.65
1984,965.72,2384.00,28.84
1985,965.81,2385.00,34.61
1986,965.90,2386.00,44.27
1987,966.00,2387.00,41.47
1988,966.09,2388.00,62.50
1989,966.18,2389.00,66.28
1990,966.28,2390.00,73.27
1991,966.37,2391.00,72.59
1992,966.46,2392.00,73.45
1993,966.56,2393.00,88.23
1994,966.65,2394.00,91.37
1995,966.74,2395.00,101.22
1996,966.84,2396.00,112.16
1997,966.93,2397.00,119.24
1998,967.02,2398.00,123.32
1999,967.12,2399.00,137.67
2000,967.21,2400.00,133.45
