Pixel,Wavelength,Wavenumber,Processed
0,810.44,400.00,1089.98
1,810.50,401.00,1125.24
2,810.57,402.00,1193.94
3,810.64,403.00,1272.22
4,810.70,404.00,1339.12
5,810.77,405.00,1476.05
6,810.83,406.00,1518.06
7,810.90,407.00,1688.72
8,810.96,408.00,1793.78
9,811.03,409.00,1905.77
10,811.10,410.00,2012.07
11,811.16,411.00,2174.62
12,811.23,412.00,2338.81
13,811.29,413.00,2462.24
14,811.36,414.00,2681.45
15,811.42,415.00,2814.30
16,811.49,416.00,3166.74
17,811.56,417.00,3486.41
18,811.62,418.00,3732.40
19,811.69,419.00,4141.89
20,811.75,420.00,4494.98
21,811.82,421.00,4998.47
22,811.89,422.00,5552.91
23,811.95,423.00,5982.41
24,812.02,424.00,6745.31
25,812.08,425.00,7399.29
26,812.15,426.00,7864.47
27,812.22,427.00,8701.33
28,812.28,428.00,9335.34
29,812.35,429.00,9971.34
30,812.41,430.00,10701.45
31,812.48,431.00,11247.52
32,812.55,432.00,11470.51
33,812.61,433.00,11756.28
34,812.68,434.00,11759.48
35,812.74,435.00,11699.20
36,812.81,436.00,11549.83
37,812.88,437.00,11359.56
38,812.94,438.00,10880.05
39,813.01,439.00,10399.58
40,813.07,440.00,10087.61
41,813.14,441.00,9433.19
42,813.21,442.00,8847.69
43,813.27,443.00,7993.64
44,813.34,444.00,7571.65
45,813.40,445.00,6943.05
46,813.47,446.00,6587.74
47,813.54,447.00,6030.41
48,813.60,448.00,5883.25
49,813.67,449.00,5528.42
50,813.74,450.00,5569.99
51,813.80,451.00,5440.79
52,813.87,452.00,5641.16
53,813.93,453.00,6009.82
54,814.00,454.00,6319.71
55,814.07,455.00,6899.27
56,814.13,456.00,7941.67
57,814.20,457.00,9061.36
58,814.27,458.00,10707.33
59,814.33,459.00,12572.21
60,814.40,460.00,15444.94
61,814.46,461.00,18472.61
62,814.53,462.00,22811.40
63,814.60,463.00,27899.21
64,814.66,464.00,34142.56
65,814.73,465.00,41225.46
66,814.80,466.00,48728.69
67,814.86,467.00,56526.88
68,814.93,468.00,63652.83
69,815.00,469.00,70226.70
70,815.06,470.00,74810.91
71,815.13,471.00,77222.41
72,815.20,472.00,76964.39
73,815.26,473.00,73829.35
74,815.33,474.00,67982.65
75,815.39,475.00,60343.14
76,815.46,476.00,52305.38
77,815.53,477.00,43395.69
78,815.59,478.00,35632.54
79,815.66,479.00,28087.25
80,815.73,480.00,21985.11
81,815.79,481.00,16958.08
82,815.86,482.00,13039.36
83,815.93,483.00,10195.14
84,815.99,484.00,7712.00
85,816.06,485.00,6178.79
86,816.13,486.00,4853.64
87,816.19,487.00,4050.20
88,816.26,488.00,3352.15
89,816.33,489.00,2978.30
90,816.39,490.00,2563.25
91,816.46,491.00,2325.94
92,816.53,492.00,2253.63
93,816.59,493.00,2066.62
94,816.66,494.00,2000.65
95,816.73,495.00,1864.00
96,816.79,496.00,1871.18
97,816.86,497.00,1911.44
98,816.93,498.00,1845.23
99,816.99,499.00,1874.62
100,817.06,500.00,1805.44
101,817.13,501.00,1757.43
102,817.19,502.00,1633.23
103,817.26,503.00,1577.97
104,817.33,504.00,1436.75
105,817.39,505.00,1343.80
106,817.46,506.00,1259.42
107,817.53,507.00,1209.32
108,817.59,508.00,1153.62
109,817.66,509.00,1031.15
110,817.73,510.00,928.37
111,817.80,511.00,889.07
112,817.86,512.00,837.90
113,817.93,513.00,813.67
114,818.00,514.00,681.95
115,818.06,515.00,617.82
116,818.13,516.00,646.52
117,818.20,517.00,614.71
118,818.26,518.00,510.14
119,818.33,519.00,502.77
120,818.40,520.00,464.45
121,818.46,521.00,485.71
122,818.53,522.00,388.21
123,818.60,523.00,321.85
124,818.67,524.00,290.06
125,818.73,525.00,247.01
126,818.80,526.00,254.15
127,818.87,527.00,252.70
128,818.93,528.00,273.41
129,819.00,529.00,342.95
130,819.07,530.00,325.40
131,819.14,531.00,332.69
132,819.20,532.00,410.51
133,819.27,533.00,406.79
134,819.34,534.00,390.33
135,819.40,535.00,589.79
136,819.47,536.00,511.55
137,819.54,537.00,549.99
138,819.60,538.00,605.44
139,819.67,539.00,528.57
140,819.74,540.00,583.31
141,819.81,541.00,486.94
142,819.87,542.00,331.32
143,819.94,543.00,300.26
144,820.01,544.00,194.84
145,820.08,545.00,185.87
146,820.14,546.00,161.88
147,820.21,547.00,102.83
148,820.28,548.00,98.76
149,820.34,549.00,79.41
150,820.41,550.00,59.22
151,820.48,551.00,93.59
152,820.55,552.00,78.30
153,820.61,553.00,93.29
154,820.68,554.00,105.65
155,820.75,555.00,118.94
156,820.82,556.00,111.97
157,820.88,557.00,123.56
158,820.95,558.00,141.36
159,821.02,559.00,137.28
160,821.09,560.00,109.64
161,821.15,561.00,81.79
162,821.22,562.00,76.87
163,821.29,563.00,58.19
164,821.36,564.00,58.16
165,821.42,565.00,8.36
166,821.49,566.00,15.24
167,821.56,567.00,40.02
168,821.63,568.00,29.22
169,821.69,569.00,6.82
170,821.76,570.00,6.08
171,821.83,571.00,17.95
172,821.90,572.00,29.79
173,821.96,573.00,0.00
174,822.03,574.00,28.49
175,822.10,575.00,58.53
176,822.17,576.00,3.85
177,822.23,577.00,10.83
178,822.30,578.00,0.00
179,822.37,579.00,55.09
180,822.44,580.00,56.41
181,822.50,581.00,0.00
182,822.57,582.00,1.71
183,822.64,583.00,7.22
184,822.71,584.00,3.66
185,822.77,585.00,0.00
186,822.84,586.00,0.23
187,822.91,587.00,0.00
188,822.98,588.00,0.33
189,823.05,589.00,0.00
190,823.11,590.00,0.00
191,823.18,591.00,0.00
192,823.25,592.00,0.00
193,823.32,593.00,0.00
194,823.38,594.00,0.00
195,823.45,595.00,0.00
196,823.52,596.00,0.03
197,823.59,597.00,0.00
198,823.66,598.00,0.01
199,823.72,599.00,0.00
200,823.79,600.00,0.00
201,823.86,601.00,0.00
202,823.93,602.00,0.00
203,823.99,603.00,0.00
204,824.06,604.00,0.00
205,824.13,605.00,1.92
206,824.20,606.00,9.35
207,824.27,607.00,2.17
208,824.33,608.00,45.68
209,824.40,609.00,0.00
210,824.47,610.00,17.19
211,824.54,611.00,0.85
212,824.61,612.00,0.00
213,824.67,613.00,72.54
214,824.74,614.00,0.00
215,824.81,615.00,0.00
216,824.88,616.00,0.00
217,824.95,617.00,0.00
218,825.01,618.00,0.00
219,825.08,619.00,0.00
220,825.15,620.00,0.00
221,825.22,621.00,5.51
222,825.29,622.00,9.57
223,825.35,623.00,21.56
224,825.42,624.00,18.28
225,825.49,625.00,0.00
226,825.56,626.00,0.00
227,825.63,627.00,0.00
228,825.70,628.00,30.14
229,825.76,629.00,25.67
230,825.83,630.00,46.42
231,825.90,631.00,0.00
232,825.97,632.00,0.00
233,826.04,633.00,0.00
234,826.10,634.00,0.00
235,826.17,635.00,0.00
236,826.24,636.00,6.28
237,826.31,637.00,5.01
238,826.38,638.00,4.88
239,826.45,639.00,16.35
240,826.51,640.00,0.00
241,826.58,641.00,0.00
242,826.65,642.00,0.00
243,826.72,643.00,9.89
244,826.79,644.00,40.15
245,826.86,645.00,29.91
246,826.92,646.00,56.71
247,826.99,647.00,11.48
248,827.06,648.00,5.55
249,827.13,649.00,10.44
250,827.20,650.00,15.80
251,827.27,651.00,31.34
252,827.34,652.00,42.35
253,827.40,653.00,0.00
254,827.47,654.00,41.71
255,827.54,655.00,50.81
256,827.61,656.00,65.38
257,827.68,657.00,80.48
258,827.75,658.00,77.18
259,827.81,659.00,68.38
260,827.88,660.00,75.17
261,827.95,661.00,69.95
262,828.02,662.00,99.36
263,828.09,663.00,82.68
264,828.16,664.00,69.37
265,828.23,665.00,67.50
266,828.29,666.00,68.61
267,828.36,667.00,26.71
268,828.43,668.00,69.83
269,828.50,669.00,17.01
270,828.57,670.00,54.45
271,828.64,671.00,41.03
272,828.71,672.00,52.80
273,828.78,673.00,38.23
274,828.84,674.00,32.28
275,828.91,675.00,19.11
276,828.98,676.00,21.09
277,829.05,677.00,32.48
278,829.12,678.00,31.89
279,829.19,679.00,21.69
280,829.26,680.00,51.01
281,829.32,681.00,36.99
282,829.39,682.00,38.01
283,829.46,683.00,5.23
284,829.53,684.00,17.33
285,829.60,685.00,0.32
286,829.67,686.00,14.89
287,829.74,687.00,0.00
288,829.81,688.00,39.12
289,829.88,689.00,9.45
290,829.94,690.00,8.02
291,830.01,691.00,0.00
292,830.08,692.00,0.00
293,830.15,693.00,6.68
294,830.22,694.00,0.00
295,830.29,695.00,4.33
296,830.36,696.00,17.96
297,830.43,697.00,0.00
298,830.50,698.00,0.00
299,830.56,699.00,0.00
300,830.63,700.00,8.50
301,830.70,701.00,0.00
302,830.77,702.00,24.38
303,830.84,703.00,0.00
304,830.91,704.00,44.89
305,830.98,705.00,7.02
306,831.05,706.00,0.00
307,831.12,707.00,0.00
308,831.19,708.00,0.00
309,831.26,709.00,0.00
310,831.32,710.00,0.00
311,831.39,711.00,0.00
312,831.46,712.00,4.36
313,831.53,713.00,0.00
314,831.60,714.00,0.00
315,831.67,715.00,0.00
316,831.74,716.00,0.00
317,831.81,717.00,0.00
318,831.88,718.00,0.21
319,831.95,719.00,0.00
320,832.02,720.00,34.21
321,832.09,721.00,0.97
322,832.15,722.00,0.00
323,832.22,723.00,0.00
324,832.29,724.00,0.00
325,832.36,725.00,3.59
326,832.43,726.00,1.06
327,832.50,727.00,1.21
328,832.57,728.00,8.93
329,832.64,729.00,0.00
330,832.71,730.00,4.82
331,832.78,731.00,0.00
332,832.85,732.00,2.30
333,832.92,733.00,3.03
334,832.99,734.00,9.73
335,833.06,735.00,0.00
336,833.13,736.00,34.27
337,833.19,737.00,18.04
338,833.26,738.00,0.00
339,833.33,739.00,16.83
340,833.40,740.00,10.41
341,833.47,741.00,0.00
342,833.54,742.00,68.86
343,833.61,743.00,28.73
344,833.68,744.00,33.00
345,833.75,745.00,26.54
346,833.82,746.00,36.26
347,833.89,747.00,3.58
348,833.96,748.00,49.28
349,834.03,749.00,19.54
350,834.10,750.00,38.91
351,834.17,751.00,0.00
352,834.24,752.00,27.69
353,834.31,753.00,19.32
354,834.38,754.00,9.70
355,834.45,755.00,3.15
356,834.52,756.00,6.36
357,834.59,757.00,6.71
358,834.65,758.00,26.55
359,834.72,759.00,18.91
360,834.79,760.00,10.49
361,834.86,761.00,22.71
362,834.93,762.00,39.67
363,835.00,763.00,26.29
364,835.07,764.00,90.06
365,835.14,765.00,81.80
366,835.21,766.00,132.10
367,835.28,767.00,90.14
368,835.35,768.00,126.82
369,835.42,769.00,90.49
370,835.49,770.00,83.17
371,835.56,771.00,53.55
372,835.63,772.00,94.81
373,835.70,773.00,64.47
374,835.77,774.00,102.06
375,835.84,775.00,73.67
376,835.91,776.00,50.80
377,835.98,777.00,72.14
378,836.05,778.00,82.43
379,836.12,779.00,60.02
380,836.19,780.00,127.89
381,836.26,781.00,103.98
382,836.33,782.00,146.89
383,836.40,783.00,102.75
384,836.47,784.00,148.82
385,836.54,785.00,101.58
386,836.61,786.00,111.39
387,836.68,787.00,86.05
388,836.75,788.00,126.37
389,836.82,789.00,94.93
390,836.89,790.00,146.82
391,836.96,791.00,103.04
392,837.03,792.00,78.68
393,837.10,793.00,109.44
394,837.17,794.00,116.49
395,837.24,795.00,89.57
396,837.31,796.00,135.82
397,837.38,797.00,135.87
398,837.45,798.00,161.47
399,837.52,799.00,114.41
400,837.59,800.00,169.55
401,837.66,801.00,136.33
402,837.73,802.00,159.21
403,837.80,803.00,112.52
404,837.87,804.00,167.05
405,837.94,805.00,161.36
406,838.01,806.00,200.42
407,838.08,807.00,149.88
408,838.15,808.00,131.52
409,838.22,809.00,184.36
410,838.29,810.00,191.42
411,838.36,811.00,125.56
412,838.43,812.00,200.06
413,838.50,813.00,222.51
414,838.57,814.00,238.83
415,838.64,815.00,167.39
416,838.72,816.00,219.08
417,838.79,817.00,181.84
418,838.86,818.00,206.81
419,838.93,819.00,144.50
420,839.00,820.00,182.80
421,839.07,821.00,184.50
422,839.14,822.00,197.78
423,839.21,823.00,161.14
424,839.28,824.00,135.32
425,839.35,825.00,188.92
426,839.42,826.00,191.09
427,839.49,827.00,149.64
428,839.56,828.00,207.87
429,839.63,829.00,211.85
430,839.70,830.00,217.59
431,839.77,831.00,168.03
432,839.84,832.00,211.48
433,839.91,833.00,166.33
434,839.98,834.00,183.32
435,840.05,835.00,137.90
436,840.12,836.00,185.32
437,840.19,837.00,147.15
438,840.27,838.00,182.89
439,840.34,839.00,132.61
440,840.41,840.00,119.77
441,840.48,841.00,154.83
442,840.55,842.00,154.28
443,840.62,843.00,153.97
444,840.69,844.00,187.95
445,840.76,845.00,210.41
446,840.83,846.00,228.52
447,840.90,847.00,219.89
448,840.97,848.00,274.50
449,841.04,849.00,283.99
450,841.11,850.00,328.91
451,841.18,851.00,325.17
452,841.26,852.00,414.63
453,841.33,853.00,397.91
454,841.40,854.00,446.94
455,841.47,855.00,461.67
456,841.54,856.00,492.63
457,841.61,857.00,490.47
458,841.68,858.00,540.72
459,841.75,859.00,580.95
460,841.82,860.00,637.06
461,841.89,861.00,613.93
462,841.96,862.00,685.16
463,842.03,863.00,724.68
464,842.11,864.00,779.35
465,842.18,865.00,774.46
466,842.25,866.00,867.67
467,842.32,867.00,907.64
468,842.39,868.00,1014.81
469,842.46,869.00,1006.61
470,842.53,870.00,1102.02
471,842.60,871.00,1141.79
472,842.67,872.00,1105.38
473,842.74,873.00,1102.01
474,842.82,874.00,1071.96
475,842.89,875.00,1011.94
476,842.96,876.00,982.72
477,843.03,877.00,906.44
478,843.10,878.00,876.96
479,843.17,879.00,777.11
480,843.24,880.00,708.88
481,843.31,881.00,619.61
482,843.38,882.00,556.10
483,843.45,883.00,467.98
484,843.53,884.00,437.99
485,843.60,885.00,384.32
486,843.67,886.00,355.85
487,843.74,887.00,312.95
488,843.81,888.00,269.92
489,843.88,889.00,236.04
490,843.95,890.00,217.44
491,844.02,891.00,172.62
492,844.10,892.00,178.98
493,844.17,893.00,165.99
494,844.24,894.00,183.74
495,844.31,895.00,146.46
496,844.38,896.00,163.89
497,844.45,897.00,140.80
498,844.52,898.00,157.42
499,844.59,899.00,126.90
500,844.67,900.00,176.13
501,844.74,901.00,148.12
502,844.81,902.00,172.22
503,844.88,903.00,165.50
504,844.95,904.00,153.41
505,845.02,905.00,147.08
506,845.09,906.00,155.39
507,845.17,907.00,164.21
508,845.24,908.00,177.53
509,845.31,909.00,154.57
510,845.38,910.00,196.51
511,845.45,911.00,170.01
512,845.52,912.00,211.03
513,845.59,913.00,169.40
514,845.67,914.00,169.24
515,845.74,915.00,198.88
516,845.81,916.00,202.08
517,845.88,917.00,158.51
518,845.95,918.00,201.29
519,846.02,919.00,203.68
520,846.10,920.00,177.46
521,846.17,921.00,161.74
522,846.24,922.00,186.10
523,846.31,923.00,183.28
524,846.38,924.00,222.15
525,846.45,925.00,210.17
526,846.53,926.00,274.34
527,846.60,927.00,255.19
528,846.67,928.00,296.92
529,846.74,929.00,233.66
530,846.81,930.00,269.42
531,846.88,931.00,314.55
532,846.96,932.00,277.86
533,847.03,933.00,225.30
534,847.10,934.00,260.65
535,847.17,935.00,250.98
536,847.24,936.00,183.92
537,847.31,937.00,153.51
538,847.39,938.00,182.15
539,847.46,939.00,135.09
540,847.53,940.00,145.81
541,847.60,941.00,135.65
542,847.67,942.00,163.35
543,847.75,943.00,146.11
544,847.82,944.00,177.18
545,847.89,945.00,141.95
546,847.96,946.00,158.04
547,848.03,947.00,163.93
548,848.10,948.00,167.81
549,848.18,949.00,149.12
550,848.25,950.00,179.46
551,848.32,951.00,196.77
552,848.39,952.00,140.17
553,848.46,953.00,114.06
554,848.54,954.00,155.20
555,848.61,955.00,90.99
556,848.68,956.00,134.31
557,848.75,957.00,116.00
558,848.82,958.00,122.53
559,848.90,959.00,80.36
560,848.97,960.00,97.74
561,849.04,961.00,77.41
562,849.11,962.00,84.18
563,849.18,963.00,65.89
564,849.26,964.00,74.00
565,849.33,965.00,61.10
566,849.40,966.00,77.26
567,849.47,967.00,92.60
568,849.55,968.00,84.54
569,849.62,969.00,69.63
570,849.69,970.00,120.35
571,849.76,971.00,85.73
572,849.83,972.00,122.19
573,849.91,973.00,138.78
574,849.98,974.00,186.59
575,850.05,975.00,151.59
576,850.12,976.00,213.59
577,850.20,977.00,174.80
578,850.27,978.00,181.64
579,850.34,979.00,176.67
580,850.41,980.00,163.80
581,850.48,981.00,152.11
582,850.56,982.00,191.38
583,850.63,983.00,205.41
584,850.70,984.00,162.57
585,850.77,985.00,118.65
586,850.85,986.00,187.10
587,850.92,987.00,139.83
588,850.99,988.00,153.85
589,851.06,989.00,158.03
590,851.14,990.00,180.21
591,851.21,991.00,146.41
592,851.28,992.00,194.33
593,851.35,993.00,155.82
594,851.43,994.00,172.69
595,851.50,995.00,118.41
596,851.57,996.00,116.67
597,851.64,997.00,117.14
598,851.72,998.00,127.17
599,851.79,999.00,128.67
600,851.86,1000.00,113.12
601,851.93,1001.00,65.51
602,852.01,1002.00,79.64
603,852.08,1003.00,35.02
604,852.15,1004.00,58.38
605,852.22,1005.00,56.50
606,852.30,1006.00,60.20
607,852.37,1007.00,30.33
608,852.44,1008.00,60.77
609,852.51,1009.00,26.72
610,852.59,1010.00,31.30
611,852.66,1011.00,0.56
612,852.73,1012.00,14.59
613,852.81,1013.00,15.68
614,852.88,1014.00,19.87
615,852.95,1015.00,23.52
616,853.02,1016.00,14.71
617,853.10,1017.00,0.00
618,853.17,1018.00,18.73
619,853.24,1019.00,0.00
620,853.32,1020.00,17.62
621,853.39,1021.00,14.10
622,853.46,1022.00,13.39
623,853.53,1023.00,0.09
624,853.61,1024.00,15.66
625,853.68,1025.00,0.20
626,853.75,1026.00,5.05
627,853.83,1027.00,0.00
628,853.90,1028.00,4.36
629,853.97,1029.00,14.24
630,854.04,1030.00,19.88
631,854.12,1031.00,16.82
632,854.19,1032.00,15.27
633,854.26,1033.00,2.77
634,854.34,1034.00,38.66
635,854.41,1035.00,0.00
636,854.48,1036.00,0.14
637,854.55,1037.00,18.17
638,854.63,1038.00,7.03
639,854.70,1039.00,0.00
640,854.77,1040.00,29.26
641,854.85,1041.00,8.65
642,854.92,1042.00,13.24
643,854.99,1043.00,13.00
644,855.07,1044.00,17.42
645,855.14,1045.00,41.92
646,855.21,1046.00,47.38
647,855.29,1047.00,47.18
648,855.36,1048.00,27.15
649,855.43,1049.00,19.40
650,855.51,1050.00,50.28
651,855.58,1051.00,6.17
652,855.65,1052.00,9.16
653,855.72,1053.00,20.25
654,855.80,1054.00,8.25
655,855.87,1055.00,6.57
656,855.94,1056.00,18.48
657,856.02,1057.00,12.94
658,856.09,1058.00,18.08
659,856.16,1059.00,20.77
660,856.24,1060.00,28.20
661,856.31,1061.00,31.80
662,856.38,1062.00,52.38
663,856.46,1063.00,57.94
664,856.53,1064.00,44.14
665,856.60,1065.00,13.20
666,856.68,1066.00,27.72
667,856.75,1067.00,16.82
668,856.82,1068.00,13.69
669,856.90,1069.00,12.57
670,856.97,1070.00,7.90
671,857.04,1071.00,11.05
672,857.12,1072.00,16.01
673,857.19,1073.00,6.15
674,857.27,1074.00,7.80
675,857.34,1075.00,21.34
676,857.41,1076.00,21.21
677,857.49,1077.00,19.48
678,857.56,1078.00,46.79
679,857.63,1079.00,43.77
680,857.71,1080.00,54.76
681,857.78,1081.00,25.34
682,857.85,1082.00,58.45
683,857.93,1083.00,36.58
684,858.00,1084.00,37.83
685,858.07,1085.00,45.32
686,858.15,1086.00,66.08
687,858.22,1087.00,35.33
688,858.30,1088.00,105.51
689,858.37,1089.00,68.04
690,858.44,1090.00,63.61
691,858.52,1091.00,43.01
692,858.59,1092.00,48.76
693,858.66,1093.00,42.49
694,858.74,1094.00,63.21
695,858.81,1095.00,36.90
696,858.89,1096.00,41.86
697,858.96,1097.00,17.01
698,859.03,1098.00,19.24
699,859.11,1099.00,1.56
700,859.18,1100.00,7.68
701,859.25,1101.00,4.12
702,859.33,1102.00,11.76
703,859.40,1103.00,4.37
704,859.48,1104.00,27.53
705,859.55,1105.00,9.67
706,859.62,1106.00,17.45
707,859.70,1107.00,2.38
708,859.77,1108.00,23.47
709,859.85,1109.00,13.16
710,859.92,1110.00,20.71
711,859.99,1111.00,5.54
712,860.07,1112.00,18.07
713,860.14,1113.00,0.00
714,860.22,1114.00,25.35
715,860.29,1115.00,0.00
716,860.36,1116.00,19.94
717,860.44,1117.00,7.11
718,860.51,1118.00,7.76
719,860.59,1119.00,6.00
720,860.66,1120.00,18.96
721,860.73,1121.00,1.57
722,860.81,1122.00,12.30
723,860.88,1123.00,1.72
724,860.96,1124.00,19.91
725,861.03,1125.00,14.86
726,861.10,1126.00,20.98
727,861.18,1127.00,0.00
728,861.25,1128.00,9.20
729,861.33,1129.00,0.00
730,861.40,1130.00,19.69
731,861.47,1131.00,0.00
732,861.55,1132.00,6.36
733,861.62,1133.00,3.52
734,861.70,1134.00,0.00
735,861.77,1135.00,3.17
736,861.85,1136.00,21.15
737,861.92,1137.00,14.94
738,861.99,1138.00,24.32
739,862.07,1139.00,24.40
740,862.14,1140.00,43.09
741,862.22,1141.00,30.69
742,862.29,1142.00,47.78
743,862.37,1143.00,45.17
744,862.44,1144.00,35.44
745,862.52,1145.00,14.46
746,862.59,1146.00,69.09
747,862.66,1147.00,18.21
748,862.74,1148.00,23.09
749,862.81,1149.00,37.13
750,862.89,1150.00,36.52
751,862.96,1151.00,20.04
752,863.04,1152.00,44.43
753,863.11,1153.00,42.83
754,863.19,1154.00,48.92
755,863.26,1155.00,47.04
756,863.33,1156.00,59.74
757,863.41,1157.00,49.47
758,863.48,1158.00,68.01
759,863.56,1159.00,48.86
760,863.63,1160.00,63.55
761,863.71,1161.00,19.12
762,863.78,1162.00,58.66
763,863.86,1163.00,18.62
764,863.93,1164.00,22.84
765,864.01,1165.00,25.35
766,864.08,1166.00,22.41
767,864.15,1167.00,16.22
768,864.23,1168.00,29.30
769,864.30,1169.00,13.84
770,864.38,1170.00,21.43
771,864.45,1171.00,29.96
772,864.53,1172.00,52.54
773,864.60,1173.00,20.16
774,864.68,1174.00,42.10
775,864.75,1175.00,24.04
776,864.83,1176.00,38.65
777,864.90,1177.00,8.46
778,864.98,1178.00,31.55
779,865.05,1179.00,19.15
780,865.13,1180.00,20.27
781,865.20,1181.00,11.90
782,865.28,1182.00,3.45
783,865.35,1183.00,17.57
784,865.43,1184.00,16.94
785,865.50,1185.00,4.46
786,865.58,1186.00,21.59
787,865.65,1187.00,26.34
788,865.73,1188.00,47.91
789,865.80,1189.00,30.60
790,865.88,1190.00,49.89
791,865.95,1191.00,33.52
792,866.03,1192.00,46.67
793,866.10,1193.00,30.52
794,866.18,1194.00,53.22
795,866.25,1195.00,37.32
796,866.33,1196.00,36.22
797,866.40,1197.00,37.79
798,866.48,1198.00,41.43
799,866.55,1199.00,43.36
800,866.63,1200.00,62.74
801,866.70,1201.00,44.43
802,866.78,1202.00,61.99
803,866.85,1203.00,53.70
804,866.93,1204.00,57.86
805,867.00,1205.00,49.10
806,867.08,1206.00,79.26
807,867.15,1207.00,46.83
808,867.23,1208.00,83.04
809,867.30,1209.00,60.22
810,867.38,1210.00,98.01
811,867.45,1211.00,50.99
812,867.53,1212.00,54.01
813,867.60,1213.00,89.99
814,867.68,1214.00,100.73
815,867.75,1215.00,36.74
816,867.83,1216.00,85.19
817,867.90,1217.00,54.68
818,867.98,1218.00,49.95
819,868.06,1219.00,21.43
820,868.13,1220.00,33.54
821,868.21,1221.00,20.43
822,868.28,1222.00,18.86
823,868.36,1223.00,5.08
824,868.43,1224.00,10.60
825,868.51,1225.00,1.47
826,868.58,1226.00,8.47
827,868.66,1227.00,0.00
828,868.73,1228.00,3.94
829,868.81,1229.00,0.58
830,868.89,1230.00,6.03
831,868.96,1231.00,1.46
832,869.04,1232.00,9.23
833,869.11,1233.00,1.46
834,869.19,1234.00,18.16
835,869.26,1235.00,14.87
836,869.34,1236.00,56.40
837,869.41,1237.00,20.76
838,869.49,1238.00,36.99
839,869.57,1239.00,0.00
840,869.64,1240.00,28.66
841,869.72,1241.00,0.73
842,869.79,1242.00,21.41
843,869.87,1243.00,0.00
844,869.94,1244.00,2.18
845,870.02,1245.00,0.00
846,870.09,1246.00,4.53
847,870.17,1247.00,2.04
848,870.25,1248.00,9.44
849,870.32,1249.00,2.25
850,870.40,1250.00,16.34
851,870.47,1251.00,19.63
852,870.55,1252.00,44.38
853,870.63,1253.00,9.84
854,870.70,1254.00,25.68
855,870.78,1255.00,0.00
856,870.85,1256.00,34.38
857,870.93,1257.00,2.78
858,871.00,1258.00,49.29
859,871.08,1259.00,0.94
860,871.16,1260.00,10.23
861,871.23,1261.00,3.11
862,871.31,1262.00,12.36
863,871.38,1263.00,11.85
864,871.46,1264.00,15.42
865,871.54,1265.00,9.34
866,871.61,1266.00,18.54
867,871.69,1267.00,25.43
868,871.76,1268.00,43.99
869,871.84,1269.00,26.38
870,871.92,1270.00,35.89
871,871.99,1271.00,12.51
872,872.07,1272.00,33.30
873,872.14,1273.00,8.10
874,872.22,1274.00,43.91
875,872.30,1275.00,6.57
876,872.37,1276.00,10.64
877,872.45,1277.00,14.47
878,872.52,1278.00,29.25
879,872.60,1279.00,22.78
880,872.68,1280.00,29.62
881,872.75,1281.00,26.92
882,872.83,1282.00,35.41
883,872.91,1283.00,38.75
884,872.98,1284.00,60.58
885,873.06,1285.00,35.44
886,873.13,1286.00,53.27
887,873.21,1287.00,27.67
888,873.29,1288.00,57.50
889,873.36,1289.00,18.61
890,873.44,1290.00,36.69
891,873.52,1291.00,9.57
892,873.59,1292.00,13.02
893,873.67,1293.00,13.27
894,873.74,1294.00,17.60
895,873.82,1295.00,22.24
896,873.90,1296.00,19.10
897,873.97,1297.00,14.46
898,874.05,1298.00,25.44
899,874.13,1299.00,35.38
900,874.20,1300.00,60.55
901,874.28,1301.00,29.86
902,874.36,1302.00,35.72
903,874.43,1303.00,36.99
904,874.51,1304.00,48.51
905,874.58,1305.00,15.77
906,874.66,1306.00,37.79
907,874.74,1307.00,8.54
908,874.81,1308.00,21.59
909,874.89,1309.00,27.94
910,874.97,1310.00,26.68
911,875.04,1311.00,35.22
912,875.12,1312.00,43.06
913,875.20,1313.00,29.66
914,875.27,1314.00,54.04
915,875.35,1315.00,64.08
916,875.43,1316.00,94.08
917,875.50,1317.00,68.72
918,875.58,1318.00,66.34
919,875.66,1319.00,53.27
920,875.73,1320.00,87.05
921,875.81,1321.00,52.09
922,875.89,1322.00,69.52
923,875.96,1323.00,30.66
924,876.04,1324.00,29.86
925,876.12,1325.00,53.99
926,876.19,1326.00,47.44
927,876.27,1327.00,45.77
928,876.35,1328.00,56.83
929,876.42,1329.00,43.60
930,876.50,1330.00,68.15
931,876.58,1331.00,63.23
932,876.65,1332.00,96.22
933,876.73,1333.00,80.31
934,876.81,1334.00,62.50
935,876.89,1335.00,62.05
936,876.96,1336.00,80.34
937,877.04,1337.00,45.84
938,877.12,1338.00,63.71
939,877.19,1339.00,24.83
940,877.27,1340.00,31.73
941,877.35,1341.00,47.37
942,877.42,1342.00,39.47
943,877.50,1343.00,45.25
944,877.58,1344.00,43.72
945,877.65,1345.00,31.01
946,877.73,1346.00,62.89
947,877.81,1347.00,61.03
948,877.89,1348.00,103.87
949,877.96,1349.00,84.52
950,878.04,1350.00,68.90
951,878.12,1351.00,58.20
952,878.19,1352.00,83.54
953,878.27,1353.00,39.26
954,878.35,1354.00,53.38
955,878.43,1355.00,21.64
956,878.50,1356.00,18.03
957,878.58,1357.00,38.62
958,878.66,1358.00,33.84
959,878.73,1359.00,27.82
960,878.81,1360.00,30.30
961,878.89,1361.00,17.42
962,878.97,1362.00,38.35
963,879.04,1363.00,47.62
964,879.12,1364.00,81.36
965,879.20,1365.00,62.64
966,879.28,1366.00,63.02
967,879.35,1367.00,40.42
968,879.43,1368.00,61.69
969,879.51,1369.00,26.45
970,879.58,1370.00,36.26
971,879.66,1371.00,12.29
972,879.74,1372.00,12.10
973,879.82,1373.00,26.61
974,879.89,1374.00,25.89
975,879.97,1375.00,25.65
976,880.05,1376.00,18.79
977,880.13,1377.00,4.66
978,880.20,1378.00,32.08
979,880.28,1379.00,42.21
980,880.36,1380.00,84.55
981,880.44,1381.00,47.02
982,880.51,1382.00,52.97
983,880.59,1383.00,23.95
984,880.67,1384.00,48.26
985,880.75,1385.00,18.71
986,880.82,1386.00,21.69
987,880.90,1387.00,5.92
988,880.98,1388.00,3.63
989,881.06,1389.00,12.66
990,881.13,1390.00,13.72
991,881.21,1391.00,9.97
992,881.29,1392.00,4.52
993,881.37,1393.00,0.00
994,881.45,1394.00,8.02
995,881.52,1395.00,22.41
996,881.60,1396.00,51.54
997,881.68,1397.00,22.20
998,881.76,1398.00,43.33
999,881.83,1399.00,17.62
1000,881.91,1400.00,40.14
1001,881.99,1401.00,20.92
1002,882.07,1402.00,15.24
1003,882.15,1403.00,16.75
1004,882.22,1404.00,2.06
1005,882.30,1405.00,13.97
1006,882.38,1406.00,20.06
1007,882.46,1407.00,21.78
1008,882.53,1408.00,1.69
1009,882.61,1409.00,0.00
1010,882.69,1410.00,14.11
1011,882.77,1411.00,33.53
1012,882.85,1412.00,69.92
1013,882.92,1413.00,31.19
1014,883.00,1414.00,55.18
1015,883.08,1415.00,32.99
1016,883.16,1416.00,47.83
1017,883.24,1417.00,22.48
1018,883.31,1418.00,17.15
1019,883.39,1419.00,19.33
1020,883.47,1420.00,7.96
1021,883.55,1421.00,15.49
1022,883.63,1422.00,11.57
1023,883.70,1423.00,19.51
1024,883.78,1424.00,0.00
1025,883.86,1425.00,0.00
1026,883.94,1426.00,5.45
1027,884.02,1427.00,22.95
1028,884.10,1428.00,57.37
1029,884.17,1429.00,33.44
1030,884.25,1430.00,69.41
1031,884.33,1431.00,39.37
1032,884.41,1432.00,52.39
1033,884.49,1433.00,29.59
1034,884.56,1434.00,5.27
1035,884.64,1435.00,26.55
1036,884.72,1436.00,3.70
1037,884.80,1437.00,12.11
1038,884.88,1438.00,9.73
1039,884.96,1439.00,17.89
1040,885.03,1440.00,0.00
1041,885.11,1441.00,0.00
1042,885.19,1442.00,4.43
1043,885.27,1443.00,16.72
1044,885.35,1444.00,58.47
1045,885.43,1445.00,20.61
1046,885.50,1446.00,49.66
1047,885.58,1447.00,5.48
1048,885.66,1448.00,24.44
1049,885.74,1449.00,7.02
1050,885.82,1450.00,5.09
1051,885.90,1451.00,2.22
1052,885.98,1452.00,0.00
1053,886.05,1453.00,0.67
1054,886.13,1454.00,1.48
1055,886.21,1455.00,0.00
1056,886.29,1456.00,0.00
1057,886.37,1457.00,0.00
1058,886.45,1458.00,1.27
1059,886.52,1459.00,1.45
1060,886.60,1460.00,35.40
1061,886.68,1461.00,4.60
1062,886.76,1462.00,53.84
1063,886.84,1463.00,11.87
1064,886.92,1464.00,41.69
1065,887.00,1465.00,20.64
1066,887.08,1466.00,7.01
1067,887.15,1467.00,0.98
1068,887.23,1468.00,0.00
1069,887.31,1469.00,0.00
1070,887.39,1470.00,1.74
1071,887.47,1471.00,0.00
1072,887.55,1472.00,0.00
1073,887.63,1473.00,0.00
1074,887.71,1474.00,0.22
1075,887.78,1475.00,0.00
1076,887.86,1476.00,9.32
1077,887.94,1477.00,2.97
1078,888.02,1478.00,19.75
1079,888.10,1479.00,4.36
1080,888.18,1480.00,23.29
1081,888.26,1481.00,19.26
1082,888.34,1482.00,18.89
1083,888.42,1483.00,9.98
1084,888.49,1484.00,0.00
1085,888.57,1485.00,22.73
1086,888.65,1486.00,16.13
1087,888.73,1487.00,14.71
1088,888.81,1488.00,0.00
1089,888.89,1489.00,0.00
1090,888.97,1490.00,9.60
1091,889.05,1491.00,1.32
1092,889.13,1492.00,60.42
1093,889.21,1493.00,44.62
1094,889.28,1494.00,86.40
1095,889.36,1495.00,36.18
1096,889.44,1496.00,50.45
1097,889.52,1497.00,18.53
1098,889.60,1498.00,3.30
1099,889.68,1499.00,4.78
1100,889.76,1500.00,0.00
1101,889.84,1501.00,4.11
1102,889.92,1502.00,3.43
1103,890.00,1503.00,0.72
1104,890.08,1504.00,0.00
1105,890.15,1505.00,0.00
1106,890.23,1506.00,1.43
1107,890.31,1507.00,0.00
1108,890.39,1508.00,16.34
1109,890.47,1509.00,11.11
1110,890.55,1510.00,36.62
1111,890.63,1511.00,15.16
1112,890.71,1512.00,45.90
1113,890.79,1513.00,34.51
1114,890.87,1514.00,22.70
1115,890.95,1515.00,27.84
1116,891.03,1516.00,3.73
1117,891.11,1517.00,23.87
1118,891.19,1518.00,13.63
1119,891.27,1519.00,17.95
1120,891.35,1520.00,0.00
1121,891.42,1521.00,5.57
1122,891.50,1522.00,19.85
1123,891.58,1523.00,7.14
1124,891.66,1524.00,60.43
1125,891.74,1525.00,39.92
1126,891.82,1526.00,65.47
1127,891.90,1527.00,31.72
1128,891.98,1528.00,61.40
1129,892.06,1529.00,37.20
1130,892.14,1530.00,27.87
1131,892.22,1531.00,22.03
1132,892.30,1532.00,0.14
1133,892.38,1533.00,18.63
1134,892.46,1534.00,10.66
1135,892.54,1535.00,8.15
1136,892.62,1536.00,0.00
1137,892.70,1537.00,4.68
1138,892.78,1538.00,8.61
1139,892.86,1539.00,0.76
1140,892.94,1540.00,32.09
1141,893.02,1541.00,31.58
1142,893.10,1542.00,45.12
1143,893.18,1543.00,28.17
1144,893.26,1544.00,43.44
1145,893.34,1545.00,42.66
1146,893.42,1546.00,27.74
1147,893.50,1547.00,33.47
1148,893.58,1548.00,8.49
1149,893.66,1549.00,51.95
1150,893.73,1550.00,41.96
1151,893.81,1551.00,40.76
1152,893.89,1552.00,10.47
1153,893.97,1553.00,32.31
1154,894.05,1554.00,27.78
1155,894.13,1555.00,25.73
1156,894.21,1556.00,78.80
1157,894.29,1557.00,73.76
1158,894.37,1558.00,86.64
1159,894.45,1559.00,70.51
1160,894.53,1560.00,73.56
1161,894.61,1561.00,62.01
1162,894.69,1562.00,45.56
1163,894.77,1563.00,48.19
1164,894.85,1564.00,23.33
1165,894.93,1565.00,70.88
1166,895.01,1566.00,53.53
1167,895.09,1567.00,52.19
1168,895.18,1568.00,30.50
1169,895.26,1569.00,47.11
1170,895.34,1570.00,42.80
1171,895.42,1571.00,48.16
1172,895.50,1572.00,105.80
1173,895.58,1573.00,107.37
1174,895.66,1574.00,122.58
1175,895.74,1575.00,103.80
1176,895.82,1576.00,114.22
1177,895.90,1577.00,80.65
1178,895.98,1578.00,55.15
1179,896.06,1579.00,63.75
1180,896.14,1580.00,23.75
1181,896.22,1581.00,64.59
1182,896.30,1582.00,49.90
1183,896.38,1583.00,48.76
1184,896.46,1584.00,36.48
1185,896.54,1585.00,35.69
1186,896.62,1586.00,39.27
1187,896.70,1587.00,37.53
1188,896.78,1588.00,87.04
1189,896.86,1589.00,82.14
1190,896.94,1590.00,86.17
1191,897.02,1591.00,65.38
1192,897.10,1592.00,74.24
1193,897.18,1593.00,49.77
1194,897.26,1594.00,33.29
1195,897.34,1595.00,40.12
1196,897.42,1596.00,17.25
1197,897.50,1597.00,46.52
1198,897.59,1598.00,37.50
1199,897.67,1599.00,32.74
1200,897.75,1600.00,19.97
1201,897.83,1601.00,29.82
1202,897.91,1602.00,28.88
1203,897.99,1603.00,28.19
1204,898.07,1604.00,78.67
1205,898.15,1605.00,75.38
1206,898.23,1606.00,77.33
1207,898.31,1607.00,54.97
1208,898.39,1608.00,58.37
1209,898.47,1609.00,46.33
1210,898.55,1610.00,22.06
1211,898.63,1611.00,30.78
1212,898.71,1612.00,14.63
1213,898.80,1613.00,40.50
1214,898.88,1614.00,28.71
1215,898.96,1615.00,28.12
1216,899.04,1616.00,13.41
1217,899.12,1617.00,32.34
1218,899.20,1618.00,23.90
1219,899.28,1619.00,34.83
1220,899.36,1620.00,74.61
1221,899.44,1621.00,81.89
1222,899.52,1622.00,96.78
1223,899.60,1623.00,88.09
1224,899.69,1624.00,88.82
1225,899.77,1625.00,65.17
1226,899.85,1626.00,53.06
1227,899.93,1627.00,54.66
1228,900.01,1628.00,33.62
1229,900.09,1629.00,73.48
1230,900.17,1630.00,61.58
1231,900.25,1631.00,51.83
1232,900.33,1632.00,39.61
1233,900.41,1633.00,48.71
1234,900.50,1634.00,31.17
1235,900.58,1635.00,34.30
1236,900.66,1636.00,80.51
1237,900.74,1637.00,63.51
1238,900.82,1638.00,80.54
1239,900.90,1639.00,46.27
1240,900.98,1640.00,50.77
1241,901.06,1641.00,16.80
1242,901.14,1642.00,13.96
1243,901.23,1643.00,7.23
1244,901.31,1644.00,2.02
1245,901.39,1645.00,13.54
1246,901.47,1646.00,13.11
1247,901.55,1647.00,6.88
1248,901.63,1648.00,5.21
1249,901.71,1649.00,2.78
1250,901.79,1650.00,0.00
1251,901.88,1651.00,8.45
1252,901.96,1652.00,47.36
1253,902.04,1653.00,30.48
1254,902.12,1654.00,67.41
1255,902.20,1655.00,23.50
1256,902.28,1656.00,56.10
1257,902.36,1657.00,12.44
1258,902.45,1658.00,12.90
1259,902.53,1659.00,7.01
1260,902.61,1660.00,5.09
1261,902.69,1661.00,7.47
1262,902.77,1662.00,8.36
1263,902.85,1663.00,1.89
1264,902.93,1664.00,0.03
1265,903.02,1665.00,0.00
1266,903.10,1666.00,0.20
1267,903.18,1667.00,0.00
1268,903.26,1668.00,31.65
1269,903.34,1669.00,18.26
1270,903.42,1670.00,51.80
1271,903.51,1671.00,9.36
1272,903.59,1672.00,56.13
1273,903.67,1673.00,7.90
1274,903.75,1674.00,19.87
1275,903.83,1675.00,4.90
1276,903.91,1676.00,8.26
1277,904.00,1677.00,0.00
1278,904.08,1678.00,4.12
1279,904.16,1679.00,0.00
1280,904.24,1680.00,0.99
1281,904.32,1681.00,0.00
1282,904.40,1682.00,0.00
1283,904.49,1683.00,0.00
1284,904.57,1684.00,12.55
1285,904.65,1685.00,5.80
1286,904.73,1686.00,21.47
1287,904.81,1687.00,0.00
1288,904.90,1688.00,28.59
1289,904.98,1689.00,0.00
1290,905.06,1690.00,19.18
1291,905.14,1691.00,1.80
1292,905.22,1692.00,14.88
1293,905.31,1693.00,8.59
1294,905.39,1694.00,0.00
1295,905.47,1695.00,1.33
1296,905.55,1696.00,0.00
1297,905.63,1697.00,0.00
1298,905.72,1698.00,0.00
1299,905.80,1699.00,0.00
1300,905.88,1700.00,10.83
1301,905.96,1701.00,6.63
1302,906.04,1702.00,21.49
1303,906.13,1703.00,0.00
1304,906.21,1704.00,20.83
1305,906.29,1705.00,9.67
1306,906.37,1706.00,20.18
1307,906.45,1707.00,0.00
1308,906.54,1708.00,9.09
1309,906.62,1709.00,21.13
1310,906.70,1710.00,11.82
1311,906.78,1711.00,7.31
1312,906.87,1712.00,0.00
1313,906.95,1713.00,1.05
1314,907.03,1714.00,0.00
1315,907.11,1715.00,1.28
1316,907.19,1716.00,9.18
1317,907.28,1717.00,14.42
1318,907.36,1718.00,29.54
1319,907.44,1719.00,0.00
1320,907.52,1720.00,22.04
1321,907.61,1721.00,7.78
1322,907.69,1722.00,24.67
1323,907.77,1723.00,0.00
1324,907.85,1724.00,13.36
1325,907.94,1725.00,42.89
1326,908.02,1726.00,31.85
1327,908.10,1727.00,18.39
1328,908.18,1728.00,0.06
1329,908.27,1729.00,10.01
1330,908.35,1730.00,5.49
1331,908.43,1731.00,1.31
1332,908.51,1732.00,20.52
1333,908.60,1733.00,22.17
1334,908.68,1734.00,53.73
1335,908.76,1735.00,0.73
1336,908.84,1736.00,34.00
1337,908.93,1737.00,22.67
1338,909.01,1738.00,22.80
1339,909.09,1739.00,4.66
1340,909.17,1740.00,17.97
1341,909.26,1741.00,34.88
1342,909.34,1742.00,21.24
1343,909.42,1743.00,9.45
1344,909.50,1744.00,2.71
1345,909.59,1745.00,5.87
1346,909.67,1746.00,4.47
1347,909.75,1747.00,0.77
1348,909.84,1748.00,12.05
1349,909.92,1749.00,10.44
1350,910.00,1750.00,27.30
1351,910.08,1751.00,3.23
1352,910.17,1752.00,20.76
1353,910.25,1753.00,18.06
1354,910.33,1754.00,33.71
1355,910.42,1755.00,14.81
1356,910.50,1756.00,37.91
1357,910.58,1757.00,69.33
1358,910.66,1758.00,58.76
1359,910.75,1759.00,25.65
1360,910.83,1760.00,26.70
1361,910.91,1761.00,50.58
1362,911.00,1762.00,42.78
1363,911.08,1763.00,22.75
1364,911.16,1764.00,49.80
1365,911.24,1765.00,50.89
1366,911.33,1766.00,63.26
1367,911.41,1767.00,11.94
1368,911.49,1768.00,30.01
1369,911.58,1769.00,15.04
1370,911.66,1770.00,19.36
1371,911.74,1771.00,4.87
1372,911.83,1772.00,8.16
1373,911.91,1773.00,25.94
1374,911.99,1774.00,26.53
1375,912.08,1775.00,5.44
1376,912.16,1776.00,19.60
1377,912.24,1777.00,27.99
1378,912.33,1778.00,18.84
1379,912.41,1779.00,22.26
1380,912.49,1780.00,43.36
1381,912.58,1781.00,52.82
1382,912.66,1782.00,64.26
1383,912.74,1783.00,26.25
1384,912.83,1784.00,33.96
1385,912.91,1785.00,31.78
1386,912.99,1786.00,24.90
1387,913.08,1787.00,10.63
1388,913.16,1788.00,14.66
1389,913.24,1789.00,39.40
1390,913.33,1790.00,25.33
1391,913.41,1791.00,13.03
1392,913.49,1792.00,23.12
1393,913.58,1793.00,40.72
1394,913.66,1794.00,42.18
1395,913.74,1795.00,40.14
1396,913.83,1796.00,72.92
1397,913.91,1797.00,89.95
1398,913.99,1798.00,97.55
1399,914.08,1799.00,49.53
1400,914.16,1800.00,54.01
1401,914.24,1801.00,41.38
1402,914.33,1802.00,35.72
1403,914.41,1803.00,22.57
1404,914.49,1804.00,26.65
1405,914.58,1805.00,41.25
1406,914.66,1806.00,26.25
1407,914.75,1807.00,19.06
1408,914.83,1808.00,22.99
1409,914.91,1809.00,28.18
1410,915.00,1810.00,29.86
1411,915.08,1811.00,26.74
1412,915.16,1812.00,54.07
1413,915.25,1813.00,44.12
1414,915.33,1814.00,62.46
1415,915.42,1815.00,28.87
1416,915.50,1816.00,43.17
1417,915.58,1817.00,34.46
1418,915.67,1818.00,28.46
1419,915.75,1819.00,18.31
1420,915.83,1820.00,24.44
1421,915.92,1821.00,47.52
1422,916.00,1822.00,24.90
1423,916.09,1823.00,22.44
1424,916.17,1824.00,20.78
1425,916.25,1825.00,23.14
1426,916.34,1826.00,31.33
1427,916.42,1827.00,17.23
1428,916.51,1828.00,40.71
1429,916.59,1829.00,38.38
1430,916.67,1830.00,50.86
1431,916.76,1831.00,17.58
1432,916.84,1832.00,26.40
1433,916.93,1833.00,12.56
1434,917.01,1834.00,18.14
1435,917.09,1835.00,5.72
1436,917.18,1836.00,12.62
1437,917.26,1837.00,30.39
1438,917.35,1838.00,16.18
1439,917.43,1839.00,8.17
1440,917.52,1840.00,11.03
1441,917.60,1841.00,17.25
1442,917.68,1842.00,23.26
1443,917.77,1843.00,15.31
1444,917.85,1844.00,31.30
1445,917.94,1845.00,29.29
1446,918.02,1846.00,39.54
1447,918.11,1847.00,13.14
1448,918.19,1848.00,21.77
1449,918.27,1849.00,13.17
1450,918.36,1850.00,21.88
1451,918.44,1851.00,3.27
1452,918.53,1852.00,19.42
1453,918.61,1853.00,41.88
1454,918.70,1854.00,25.30
1455,918.78,1855.00,16.66
1456,918.86,1856.00,14.39
1457,918.95,1857.00,15.43
1458,919.03,1858.00,26.08
1459,919.12,1859.00,12.82
1460,919.20,1860.00,28.60
1461,919.29,1861.00,22.41
1462,919.37,1862.00,38.78
1463,919.46,1863.00,7.39
1464,919.54,1864.00,17.52
1465,919.62,1865.00,8.65
1466,919.71,1866.00,16.08
1467,919.79,1867.00,0.00
1468,919.88,1868.00,18.32
1469,919.96,1869.00,29.11
1470,920.05,1870.00,13.29
1471,920.13,1871.00,9.55
1472,920.22,1872.00,6.38
1473,920.30,1873.00,2.78
1474,920.39,1874.00,12.29
1475,920.47,1875.00,5.85
1476,920.56,1876.00,17.71
1477,920.64,1877.00,12.28
1478,920.73,1878.00,34.54
1479,920.81,1879.00,11.35
1480,920.90,1880.00,23.01
1481,920.98,1881.00,14.55
1482,921.06,1882.00,27.77
1483,921.15,1883.00,6.24
1484,921.23,1884.00,28.60
1485,921.32,1885.00,51.47
1486,921.40,1886.00,24.37
1487,921.49,1887.00,20.30
1488,921.57,1888.00,9.58
1489,921.66,1889.00,6.82
1490,921.74,1890.00,21.58
1491,921.83,1891.00,7.83
1492,921.91,1892.00,9.75
1493,922.00,1893.00,8.58
1494,922.08,1894.00,29.61
1495,922.17,1895.00,0.00
1496,922.25,1896.00,15.04
1497,922.34,1897.00,0.00
1498,922.42,1898.00,20.36
1499,922.51,1899.00,0.00
1500,922.59,1900.00,15.98
1501,922.68,1901.00,37.29
1502,922.76,1902.00,19.16
1503,922.85,1903.00,3.41
1504,922.93,1904.00,9.32
1505,923.02,1905.00,0.00
1506,923.11,1906.00,7.99
1507,923.19,1907.00,1.56
1508,923.28,1908.00,5.04
1509,923.36,1909.00,2.72
1510,923.45,1910.00,12.84
1511,923.53,1911.00,0.00
1512,923.62,1912.00,5.01
1513,923.70,1913.00,0.83
1514,923.79,1914.00,16.23
1515,923.87,1915.00,0.00
1516,923.96,1916.00,16.17
1517,924.04,1917.00,39.49
1518,924.13,1918.00,23.24
1519,924.21,1919.00,3.72
1520,924.30,1920.00,15.88
1521,924.39,1921.00,9.59
1522,924.47,1922.00,22.12
1523,924.56,1923.00,9.56
1524,924.64,1924.00,13.25
1525,924.73,1925.00,16.51
1526,924.81,1926.00,35.62
1527,924.90,1927.00,0.88
1528,924.98,1928.00,9.95
1529,925.07,1929.00,3.69
1530,925.16,1930.00,19.07
1531,925.24,1931.00,0.00
1532,925.33,1932.00,11.26
1533,925.41,1933.00,35.22
1534,925.50,1934.00,15.31
1535,925.58,1935.00,4.77
1536,925.67,1936.00,7.31
1537,925.75,1937.00,10.25
1538,925.84,1938.00,14.67
1539,925.93,1939.00,8.66
1540,926.01,1940.00,5.55
1541,926.10,1941.00,12.71
1542,926.18,1942.00,27.81
1543,926.27,1943.00,5.49
1544,926.35,1944.00,8.41
1545,926.44,1945.00,1.27
1546,926.53,1946.00,17.97
1547,926.61,1947.00,0.72
1548,926.70,1948.00,13.71
1549,926.78,1949.00,45.06
1550,926.87,1950.00,23.14
1551,926.96,1951.00,13.67
1552,927.04,1952.00,18.86
1553,927.13,1953.00,24.82
1554,927.21,1954.00,35.08
1555,927.30,1955.00,29.12
1556,927.39,1956.00,27.52
1557,927.47,1957.00,21.93
1558,927.56,1958.00,39.83
1559,927.64,1959.00,5.58
1560,927.73,1960.00,11.62
1561,927.82,1961.00,0.00
1562,927.90,1962.00,8.00
1563,927.99,1963.00,0.00
1564,928.07,1964.00,7.14
1565,928.16,1965.00,16.83
1566,928.25,1966.00,7.66
1567,928.33,1967.00,2.33
1568,928.42,1968.00,6.75
1569,928.51,1969.00,5.17
1570,928.59,1970.00,17.91
1571,928.68,1971.00,10.91
1572,928.76,1972.00,16.67
1573,928.85,1973.00,17.01
1574,928.94,1974.00,47.45
1575,929.02,1975.00,0.47
1576,929.11,1976.00,23.18
1577,929.20,1977.00,1.83
1578,929.28,1978.00,26.49
1579,929.37,1979.00,0.00
1580,929.45,1980.00,15.18
1581,929.54,1981.00,26.31
1582,929.63,1982.00,12.12
1583,929.71,1983.00,0.00
1584,929.80,1984.00,7.42
1585,929.89,1985.00,0.00
1586,929.97,1986.00,5.63
1587,930.06,1987.00,1.73
1588,930.15,1988.00,15.18
1589,930.23,1989.00,2.73
1590,930.32,1990.00,25.27
1591,930.41,1991.00,0.00
1592,930.49,1992.00,8.16
1593,930.58,1993.00,3.71
1594,930.67,1994.00,14.35
1595,930.75,1995.00,0.00
1596,930.84,1996.00,8.72
1597,930.93,1997.00,26.21
1598,931.01,1998.00,2.13
1599,931.10,1999.00,0.00
1600,931.19,2000.00,4.48
1601,931.27,2001.00,1.58
1602,931.36,2002.00,2.90
1603,931.45,2003.00,5.39
1604,931.53,2004.00,6.17
1605,931.62,2005.00,7.82
1606,931.71,2006.00,20.21
1607,931.79,2007.00,8.13
1608,931.88,2008.00,8.46
1609,931.97,2009.00,14.14
1610,932.05,2010.00,27.38
1611,932.14,2011.00,0.00
1612,932.23,2012.00,23.81
1613,932.31,2013.00,58.14
1614,932.40,2014.00,13.95
1615,932.49,2015.00,23.00
1616,932.57,2016.00,8.77
1617,932.66,2017.00,8.69
1618,932.75,2018.00,23.65
1619,932.84,2019.00,17.36
1620,932.92,2020.00,22.03
1621,933.01,2021.00,14.42
1622,933.10,2022.00,28.70
1623,933.18,2023.00,5.49
1624,933.27,2024.00,22.33
1625,933.36,2025.00,0.00
1626,933.45,2026.00,24.54
1627,933.53,2027.00,0.13
1628,933.62,2028.00,23.89
1629,933.71,2029.00,34.38
1630,933.79,2030.00,12.23
1631,933.88,2031.00,7.43
1632,933.97,2032.00,12.56
1633,934.06,2033.00,0.00
1634,934.14,2034.00,4.15
1635,934.23,2035.00,5.67
1636,934.32,2036.00,11.15
1637,934.40,2037.00,4.14
1638,934.49,2038.00,19.78
1639,934.58,2039.00,4.37
1640,934.67,2040.00,9.49
1641,934.75,2041.00,0.80
1642,934.84,2042.00,20.95
1643,934.93,2043.00,0.00
1644,935.02,2044.00,15.77
1645,935.10,2045.00,44.05
1646,935.19,2046.00,21.31
1647,935.28,2047.00,5.46
1648,935.37,2048.00,3.00
1649,935.45,2049.00,3.62
1650,935.54,2050.00,2.96
1651,935.63,2051.00,0.61
1652,935.72,2052.00,0.62
1653,935.80,2053.00,2.26
1654,935.89,2054.00,9.78
1655,935.98,2055.00,5.82
1656,936.07,2056.00,2.36
1657,936.15,2057.00,4.00
1658,936.24,2058.00,13.70
1659,936.33,2059.00,0.00
1660,936.42,2060.00,13.91
1661,936.51,2061.00,45.97
1662,936.59,2062.00,24.17
1663,936.68,2063.00,24.66
1664,936.77,2064.00,25.05
1665,936.86,2065.00,48.87
1666,936.94,2066.00,44.03
1667,937.03,2067.00,46.01
1668,937.12,2068.00,23.55
1669,937.21,2069.00,38.37
1670,937.30,2070.00,43.36
1671,937.38,2071.00,24.13
1672,937.47,2072.00,17.79
1673,937.56,2073.00,1.17
1674,937.65,2074.00,15.02
1675,937.73,2075.00,0.37
1676,937.82,2076.00,13.12
1677,937.91,2077.00,19.45
1678,938.00,2078.00,7.22
1679,938.09,2079.00,6.92
1680,938.17,2080.00,7.62
1681,938.26,2081.00,4.25
1682,938.35,2082.00,14.72
1683,938.44,2083.00,13.20
1684,938.53,2084.00,20.13
1685,938.61,2085.00,23.56
1686,938.70,2086.00,46.48
1687,938.79,2087.00,26.96
1688,938.88,2088.00,24.51
1689,938.97,2089.00,9.38
1690,939.06,2090.00,23.23
1691,939.14,2091.00,3.75
1692,939.23,2092.00,27.68
1693,939.32,2093.00,40.31
1694,939.41,2094.00,9.23
1695,939.50,2095.00,10.02
1696,939.58,2096.00,8.06
1697,939.67,2097.00,5.59
1698,939.76,2098.00,16.71
1699,939.85,2099.00,9.06
1700,939.94,2100.00,11.48
1701,940.03,2101.00,7.23
1702,940.11,2102.00,19.04
1703,940.20,2103.00,4.84
1704,940.29,2104.00,6.23
1705,940.38,2105.00,2.58
1706,940.47,2106.00,26.36
1707,940.56,2107.00,0.00
1708,940.65,2108.00,25.55
1709,940.73,2109.00,55.70
1710,940.82,2110.00,23.24
1711,940.91,2111.00,25.48
1712,941.00,2112.00,15.66
1713,941.09,2113.00,13.30
1714,941.18,2114.00,31.85
1715,941.27,2115.00,14.87
1716,941.35,2116.00,14.02
1717,941.44,2117.00,13.85
1718,941.53,2118.00,18.43
1719,941.62,2119.00,2.52
1720,941.71,2120.00,5.53
1721,941.80,2121.00,0.55
1722,941.89,2122.00,17.45
1723,941.97,2123.00,0.00
1724,942.06,2124.00,10.82
1725,942.15,2125.00,23.51
1726,942.24,2126.00,9.28
1727,942.33,2127.00,3.26
1728,942.42,2128.00,16.26
1729,942.51,2129.00,2.74
1730,942.60,2130.00,7.28
1731,942.68,2131.00,8.11
1732,942.77,2132.00,13.66
1733,942.86,2133.00,18.29
1734,942.95,2134.00,24.21
1735,943.04,2135.00,14.91
1736,943.13,2136.00,13.78
1737,943.22,2137.00,3.31
1738,943.31,2138.00,19.74
1739,943.40,2139.00,0.00
1740,943.49,2140.00,9.97
1741,943.57,2141.00,34.68
1742,943.66,2142.00,14.48
1743,943.75,2143.00,11.03
1744,943.84,2144.00,12.51
1745,943.93,2145.00,11.69
1746,944.02,2146.00,15.68
1747,944.11,2147.00,14.83
1748,944.20,2148.00,15.31
1749,944.29,2149.00,24.62
1750,944.38,2150.00,42.92
1751,944.47,2151.00,21.95
1752,944.55,2152.00,21.30
1753,944.64,2153.00,21.41
1754,944.73,2154.00,39.67
1755,944.82,2155.00,1.78
1756,944.91,2156.00,34.73
1757,945.00,2157.00,61.36
1758,945.09,2158.00,21.35
1759,945.18,2159.00,24.81
1760,945.27,2160.00,17.55
1761,945.36,2161.00,21.53
1762,945.45,2162.00,23.20
1763,945.54,2163.00,28.28
1764,945.63,2164.00,17.98
1765,945.72,2165.00,22.98
1766,945.81,2166.00,32.23
1767,945.89,2167.00,13.23
1768,945.98,2168.00,13.49
1769,946.07,2169.00,5.58
1770,946.16,2170.00,16.71
1771,946.25,2171.00,2.46
1772,946.34,2172.00,17.91
1773,946.43,2173.00,36.41
1774,946.52,2174.00,9.66
1775,946.61,2175.00,18.24
1776,946.70,2176.00,14.13
1777,946.79,2177.00,10.54
1778,946.88,2178.00,27.09
1779,946.97,2179.00,24.50
1780,947.06,2180.00,24.07
1781,947.15,2181.00,31.74
1782,947.24,2182.00,49.57
1783,947.33,2183.00,23.13
1784,947.42,2184.00,25.12
1785,947.51,2185.00,3.71
1786,947.60,2186.00,27.57
1787,947.69,2187.00,0.00
1788,947.78,2188.00,15.33
1789,947.87,2189.00,34.42
1790,947.96,2190.00,10.40
1791,948.05,2191.00,4.43
1792,948.14,2192.00,8.50
1793,948.23,2193.00,3.18
1794,948.32,2194.00,11.45
1795,948.41,2195.00,10.70
1796,948.50,2196.00,14.72
1797,948.59,2197.00,16.13
1798,948.68,2198.00,24.58
1799,948.77,2199.00,10.62
1800,948.86,2200.00,11.44
1801,948.95,2201.00,1.98
1802,949.04,2202.00,18.75
1803,949.13,2203.00,0.00
1804,949.22,2204.00,11.16
1805,949.31,2205.00,29.94
1806,949.40,2206.00,6.47
1807,949.49,2207.00,2.96
1808,949.58,2208.00,7.97
1809,949.67,2209.00,2.62
1810,949.76,2210.00,12.80
1811,949.85,2211.00,13.26
1812,949.94,2212.00,15.27
1813,950.03,2213.00,23.57
1814,950.12,2214.00,34.21
1815,950.21,2215.00,19.26
1816,950.30,2216.00,16.06
1817,950.39,2217.00,11.42
1818,950.48,2218.00,32.62
1819,950.57,2219.00,0.00
1820,950.66,2220.00,17.53
1821,950.75,2221.00,56.55
1822,950.84,2222.00,16.81
1823,950.93,2223.00,12.71
1824,951.02,2224.00,12.79
1825,951.11,2225.00,9.87
1826,951.20,2226.00,15.77
1827,951.29,2227.00,16.37
1828,951.38,2228.00,11.85
1829,951.47,2229.00,21.79
1830,951.57,2230.00,32.57
1831,951.66,2231.00,13.95
1832,951.75,2232.00,17.43
1833,951.84,2233.00,6.65
1834,951.93,2234.00,22.12
1835,952.02,2235.00,0.00
1836,952.11,2236.00,18.89
1837,952.20,2237.00,41.68
1838,952.29,2238.00,15.16
1839,952.38,2239.00,13.86
1840,952.47,2240.00,15.38
1841,952.56,2241.00,6.25
1842,952.65,2242.00,13.32
1843,952.74,2243.00,15.40
1844,952.83,2244.00,13.51
1845,952.93,2245.00,20.13
1846,953.02,2246.00,36.04
1847,953.11,2247.00,15.03
1848,953.20,2248.00,19.96
1849,953.29,2249.00,9.44
1850,953.38,2250.00,24.44
1851,953.47,2251.00,1.56
1852,953.56,2252.00,19.62
1853,953.65,2253.00,45.98
1854,953.74,2254.00,15.48
1855,953.83,2255.00,17.47
1856,953.93,2256.00,15.43
1857,954.02,2257.00,7.92
1858,954.11,2258.00,18.27
1859,954.20,2259.00,20.79
1860,954.29,2260.00,19.44
1861,954.38,2261.00,18.86
1862,954.47,2262.00,36.18
1863,954.56,2263.00,19.34
1864,954.65,2264.00,14.53
1865,954.75,2265.00,8.44
1866,954.84,2266.00,23.25
1867,954.93,2267.00,0.00
1868,955.02,2268.00,17.86
1869,955.11,2269.00,40.40
1870,955.20,2270.00,9.45
1871,955.29,2271.00,9.44
1872,955.38,2272.00,7.29
1873,955.47,2273.00,2.42
1874,955.57,2274.00,7.31
1875,955.66,2275.00,5.44
1876,955.75,2276.00,6.29
1877,955.84,2277.00,10.37
1878,955.93,2278.00,15.87
1879,956.02,2279.00,10.51
1880,956.11,2280.00,12.02
1881,956.21,2281.00,4.86
1882,956.30,2282.00,31.77
1883,956.39,2283.00,3.72
1884,956.48,2284.00,27.21
1885,956.57,2285.00,60.43
1886,956.66,2286.00,22.01
1887,956.75,2287.00,21.05
1888,956.85,2288.00,20.51
1889,956.94,2289.00,13.71
1890,957.03,2290.00,18.96
1891,957.12,2291.00,20.74
1892,957.21,2292.00,18.84
1893,957.30,2293.00,24.58
1894,957.40,2294.00,25.98
1895,957.49,2295.00,20.09
1896,957.58,2296.00,18.18
1897,957.67,2297.00,5.06
1898,957.76,2298.00,19.05
1899,957.85,2299.00,0.00
1900,957.95,2300.00,10.94
1901,958.04,2301.00,32.23
1902,958.13,2302.00,9.19
1903,958.22,2303.00,8.07
1904,958.31,2304.00,7.95
1905,958.41,2305.00,2.74
1906,958.50,2306.00,7.05
1907,958.59,2307.00,8.12
1908,958.68,2308.00,13.38
1909,958.77,2309.00,30.86
1910,958.86,2310.00,38.38
1911,958.96,2311.00,27.67
1912,959.05,2312.00,21.33
1913,959.14,2313.00,16.05
1914,959.23,2314.00,30.24
1915,959.32,2315.00,0.46
1916,959.42,2316.00,19.10
1917,959.51,2317.00,44.21
1918,959.60,2318.00,7.16
1919,959.69,2319.00,11.27
1920,959.79,2320.00,8.61
1921,959.88,2321.00,8.45
1922,959.97,2322.00,14.81
1923,960.06,2323.00,15.95
1924,960.15,2324.00,17.72
1925,960.25,2325.00,29.43
1926,960.34,2326.00,44.87
1927,960.43,2327.00,31.93
1928,960.52,2328.00,25.97
1929,960.61,2329.00,12.79
1930,960.71,2330.00,33.74
1931,960.80,2331.00,5.04
1932,960.89,2332.00,24.82
1933,960.98,2333.00,46.48
1934,961.08,2334.00,8.54
1935,961.17,2335.00,12.59
1936,961.26,2336.00,11.44
1937,961.35,2337.00,7.63
1938,961.45,2338.00,10.66
1939,961.54,2339.00,12.88
1940,961.63,2340.00,11.72
1941,961.72,2341.00,20.68
1942,961.82,2342.00,28.19
1943,961.91,2343.00,17.49
1944,962.00,2344.00,16.71
1945,962.09,2345.00,4.42
1946,962.19,2346.00,25.28
1947,962.28,2347.00,0.00
1948,962.37,2348.00,18.58
1949,962.46,2349.00,45.24
1950,962.56,2350.00,14.36
1951,962.65,2351.00,6.69
1952,962.74,2352.00,9.12
1953,962.83,2353.00,3.96
1954,962.93,2354.00,14.26
1955,963.02,2355.00,8.31
1956,963.11,2356.00,19.50
1957,963.21,2357.00,17.16
1958,963.30,2358.00,30.55
1959,963.39,2359.00,11.40
1960,963.48,2360.00,13.57
1961,963.58,2361.00,0.00
1962,963.67,2362.00,14.63
1963,963.76,2363.00,0.00
1964,963.86,2364.00,7.29
1965,963.95,2365.00,19.29
1966,964.04,2366.00,6.33
1967,964.13,2367.00,0.00
1968,964.23,2368.00,8.19
1969,964.32,2369.00,2.03
1970,964.41,2370.00,0.64
1971,964.51,2371.00,7.73
1972,964.60,2372.00,15.29
1973,964.69,2373.00,12.87
1974,964.79,2374.00,28.43
1975,964.88,2375.00,11.93
1976,964.97,2376.00,13.42
1977,965.06,2377.00,3.55
1978,965.16,2378.00,18.94
1979,965.25,2379.00,0.00
1980,965.34,2380.00,7.14
1981,965.44,2381.00,30.83
1982,965.53,2382.00,8.87
1983,965.62,2383.00,8.08
1984,965.72,2384.00,5.01
1985,965.81,2385.00,0.00
1986,965.90,2386.00,3.98
1987,966.00,2387.00,3.26
1988,966.09,2388.00,4.27
1989,966.18,2389.00,11.55
1990,966.28,2390.00,27.26
1991,966.37,2391.00,11.51
1992,966.46,2392.00,21.12
1993,966.56,2393.00,13.05
1994,966.65,2394.00,43.11
1995,966.74,2395.00,0.00
1996,966.84,2396.00,34.78
1997,966.93,2397.00,59.28
1998,967.02,2398.00,16.93
1999,967.12,2399.00,12.63
2000,967.21,2400.00,9.23
