Pixel,Wavelength,Wavenumber,Processed
0,810.44,400.00,7.08
1,810.50,401.00,16.92
2,810.57,402.00,35.73
3,810.64,403.00,11.51
4,810.70,404.00,24.76
5,810.77,405.00,61.73
6,810.83,406.00,86.27
7,810.90,407.00,79.29
8,810.96,408.00,129.40
9,811.03,409.00,93.55
10,811.10,410.00,101.67
11,811.16,411.00,47.25
12,811.23,412.00,116.64
13,811.29,413.00,91.73
14,811.36,414.00,53.67
15,811.42,415.00,46.32
16,811.49,416.00,51.51
17,811.56,417.00,0.00
18,811.62,418.00,35.64
19,811.69,419.00,1.26
20,811.75,420.00,15.12
21,811.82,421.00,14.07
22,811.89,422.00,39.80
23,811.95,423.00,0.00
24,812.02,424.00,28.09
25,812.08,425.00,29.99
26,812.15,426.00,22.45
27,812.22,427.00,27.80
28,812.28,428.00,35.31
29,812.35,429.00,50.74
30,812.41,430.00,81.67
31,812.48,431.00,86.94
32,812.55,432.00,57.79
33,812.61,433.00,4.13
34,812.68,434.00,73.82
35,812.74,435.00,0.00
36,812.81,436.00,75.47
37,812.88,437.00,61.51
38,812.94,438.00,153.26
39,813.01,439.00,64.07
40,813.07,440.00,64.41
41,813.14,441.00,68.74
42,813.21,442.00,74.76
43,813.27,443.00,66.06
44,813.34,444.00,34.09
45,813.40,445.00,45.34
46,813.47,446.00,85.41
47,813.54,447.00,123.04
48,813.60,448.00,62.70
49,813.67,449.00,105.00
50,813.74,450.00,124.19
51,813.80,451.00,133.97
52,813.87,452.00,199.17
53,813.93,453.00,159.05
54,814.00,454.00,224.15
55,814.07,455.00,328.97
56,814.13,456.00,279.63
57,814.20,457.00,257.56
58,814.27,458.00,295.93
59,814.33,459.00,350.77
60,814.40,460.00,349.18
61,814.46,461.00,280.28
62,814.53,462.00,504.05
63,814.60,463.00,490.08
64,814.66,464.00,422.17
65,814.73,465.00,419.16
66,814.80,466.00,413.55
67,814.86,467.00,439.33
68,814.93,468.00,461.42
69,815.00,469.00,463.80
70,815.06,470.00,419.37
71,815.13,471.00,461.83
72,815.20,472.00,345.65
73,815.26,473.00,398.02
74,815.33,474.00,367.13
75,815.39,475.00,376.24
76,815.46,476.00,387.47
77,815.53,477.00,332.50
78,815.59,478.00,361.45
79,815.66,479.00,357.68
80,815.73,480.00,382.10
81,815.79,481.00,333.92
82,815.86,482.00,430.36
83,815.93,483.00,437.85
84,815.99,484.00,482.64
85,816.06,485.00,521.61
86,816.13,486.00,505.48
87,816.19,487.00,508.49
88,816.26,488.00,567.85
89,816.33,489.00,625.34
90,816.39,490.00,675.23
91,816.46,491.00,674.61
92,816.53,492.00,783.53
93,816.59,493.00,776.25
94,816.66,494.00,844.42
95,816.73,495.00,1003.90
96,816.79,496.00,1020.23
97,816.86,497.00,1118.36
98,816.93,498.00,1251.01
99,816.99,499.00,1385.95
100,817.06,500.00,1550.96
101,817.13,501.00,1701.47
102,817.19,502.00,1944.21
103,817.26,503.00,2317.27
104,817.33,504.00,2579.56
105,817.39,505.00,3117.28
106,817.46,506.00,3543.43
107,817.53,507.00,4313.91
108,817.59,508.00,5072.24
109,817.66,509.00,6169.51
110,817.73,510.00,7329.27
111,817.80,511.00,8987.74
112,817.86,512.00,10491.80
113,817.93,513.00,12426.59
114,818.00,514.00,14775.49
115,818.06,515.00,17143.04
116,818.13,516.00,18879.24
117,818.20,517.00,21092.06
118,818.26,518.00,22860.80
119,818.33,519.00,23294.41
120,818.40,520.00,24276.54
121,818.46,521.00,23038.35
122,818.53,522.00,22291.99
123,818.60,523.00,19837.59
124,818.67,524.00,17776.61
125,818.73,525.00,15635.89
126,818.80,526.00,12876.68
127,818.87,527.00,10567.14
128,818.93,528.00,8301.76
129,819.00,529.00,6459.90
130,819.07,530.00,5089.22
131,819.14,531.00,4056.06
132,819.20,532.00,3008.23
133,819.27,533.00,2321.64
134,819.34,534.00,1795.54
135,819.40,535.00,1421.81
136,819.47,536.00,1239.95
137,819.54,537.00,1082.38
138,819.60,538.00,936.89
139,819.67,539.00,874.03
140,819.74,540.00,762.10
141,819.81,541.00,752.54
142,819.87,542.00,726.64
143,819.94,543.00,787.36
144,820.01,544.00,807.42
145,820.08,545.00,776.56
146,820.14,546.00,791.17
147,820.21,547.00,815.24
148,820.28,548.00,804.10
149,820.34,549.00,767.17
150,820.41,550.00,752.22
151,820.48,551.00,655.13
152,820.55,552.00,579.45
153,820.61,553.00,511.40
154,820.68,554.00,397.78
155,820.75,555.00,342.76
156,820.82,556.00,260.16
157,820.88,557.00,229.04
158,820.95,558.00,188.57
159,821.02,559.00,150.51
160,821.09,560.00,158.89
161,821.15,561.00,172.51
162,821.22,562.00,172.24
163,821.29,563.00,149.00
164,821.36,564.00,179.83
165,821.42,565.00,193.83
166,821.49,566.00,223.44
167,821.56,567.00,227.59
168,821.63,568.00,239.34
169,821.69,569.00,307.24
170,821.76,570.00,317.48
171,821.83,571.00,302.50
172,821.90,572.00,344.95
173,821.96,573.00,312.26
174,822.03,574.00,273.96
175,822.10,575.00,242.77
176,822.17,576.00,208.86
177,822.23,577.00,213.02
178,822.30,578.00,146.09
179,822.37,579.00,135.72
180,822.44,580.00,94.56
181,822.50,581.00,109.21
182,822.57,582.00,144.43
183,822.64,583.00,125.66
184,822.71,584.00,143.98
185,822.77,585.00,160.89
186,822.84,586.00,199.75
187,822.91,587.00,198.18
188,822.98,588.00,250.82
189,823.05,589.00,282.71
190,823.11,590.00,352.69
191,823.18,591.00,413.28
192,823.25,592.00,453.15
193,823.32,593.00,505.68
194,823.38,594.00,547.80
195,823.45,595.00,557.53
196,823.52,596.00,615.26
197,823.59,597.00,649.44
198,823.66,598.00,667.96
199,823.72,599.00,720.98
200,823.79,600.00,759.76
201,823.86,601.00,782.91
202,823.93,602.00,871.70
203,823.99,603.00,915.33
204,824.06,604.00,1078.62
205,824.13,605.00,1222.21
206,824.20,606.00,1415.27
207,824.27,607.00,1713.65
208,824.33,608.00,1953.04
209,824.40,609.00,2233.53
210,824.47,610.00,2839.44
211,824.54,611.00,3542.30
212,824.61,612.00,4109.90
213,824.67,613.00,4901.49
214,824.74,614.00,5634.75
215,824.81,615.00,6534.64
216,824.88,616.00,7472.23
217,824.95,617.00,8219.58
218,825.01,618.00,8881.81
219,825.08,619.00,9061.51
220,825.15,620.00,9679.99
221,825.22,621.00,9467.85
222,825.29,622.00,9445.58
223,825.35,623.00,8933.42
224,825.42,624.00,8620.08
225,825.49,625.00,7831.53
226,825.56,626.00,7224.62
227,825.63,627.00,6216.03
228,825.70,628.00,5360.79
229,825.76,629.00,4608.10
230,825.83,630.00,3966.86
231,825.90,631.00,3252.51
232,825.97,632.00,2700.83
233,826.04,633.00,2225.26
234,826.10,634.00,1839.03
235,826.17,635.00,1536.12
236,826.24,636.00,1245.94
237,826.31,637.00,1045.38
238,826.38,638.00,858.96
239,826.45,639.00,708.50
240,826.51,640.00,588.34
241,826.58,641.00,531.85
242,826.65,642.00,460.92
243,826.72,643.00,420.62
244,826.79,644.00,361.96
245,826.86,645.00,348.60
246,826.92,646.00,304.91
247,826.99,647.00,257.52
248,827.06,648.00,259.54
249,827.13,649.00,270.41
250,827.20,650.00,274.99
251,827.27,651.00,256.47
252,827.34,652.00,190.16
253,827.40,653.00,188.69
254,827.47,654.00,213.44
255,827.54,655.00,205.48
256,827.61,656.00,248.11
257,827.68,657.00,229.50
258,827.75,658.00,252.80
259,827.81,659.00,157.23
260,827.88,660.00,152.39
261,827.95,661.00,136.61
262,828.02,662.00,180.22
263,828.09,663.00,184.22
264,828.16,664.00,181.45
265,828.23,665.00,151.61
266,828.29,666.00,149.15
267,828.36,667.00,165.03
268,828.43,668.00,141.33
269,828.50,669.00,121.68
270,828.57,670.00,127.34
271,828.64,671.00,175.35
272,828.71,672.00,164.21
273,828.78,673.00,188.08
274,828.84,674.00,260.85
275,828.91,675.00,142.65
276,828.98,676.00,111.45
277,829.05,677.00,87.93
278,829.12,678.00,161.07
279,829.19,679.00,82.01
280,829.26,680.00,104.11
281,829.32,681.00,55.19
282,829.39,682.00,58.99
283,829.46,683.00,26.20
284,829.53,684.00,51.20
285,829.60,685.00,36.98
286,829.67,686.00,44.45
287,829.74,687.00,13.66
288,829.81,688.00,29.27
289,829.88,689.00,37.11
290,829.94,690.00,44.88
291,830.01,691.00,11.06
292,830.08,692.00,17.21
293,830.15,693.00,27.79
294,830.22,694.00,65.94
295,830.29,695.00,22.80
296,830.36,696.00,78.41
297,830.43,697.00,105.69
298,830.50,698.00,107.74
299,830.56,699.00,11.65
300,830.63,700.00,103.01
301,830.70,701.00,59.89
302,830.77,702.00,108.65
303,830.84,703.00,122.01
304,830.91,704.00,119.05
305,830.98,705.00,104.17
306,831.05,706.00,140.32
307,831.12,707.00,99.39
308,831.19,708.00,143.69
309,831.26,709.00,148.82
310,831.32,710.00,151.80
311,831.39,711.00,156.98
312,831.46,712.00,153.17
313,831.53,713.00,200.32
314,831.60,714.00,225.69
315,831.67,715.00,195.78
316,831.74,716.00,201.59
317,831.81,717.00,255.27
318,831.88,718.00,328.40
319,831.95,719.00,359.32
320,832.02,720.00,395.67
321,832.09,721.00,474.16
322,832.15,722.00,525.45
323,832.22,723.00,592.57
324,832.29,724.00,557.41
325,832.36,725.00,522.20
326,832.43,726.00,651.95
327,832.50,727.00,667.58
328,832.57,728.00,644.43
329,832.64,729.00,679.16
330,832.71,730.00,755.05
331,832.78,731.00,792.98
332,832.85,732.00,764.69
333,832.92,733.00,675.14
334,832.99,734.00,795.16
335,833.06,735.00,758.17
336,833.13,736.00,725.45
337,833.19,737.00,526.07
338,833.26,738.00,542.17
339,833.33,739.00,459.67
340,833.40,740.00,452.96
341,833.47,741.00,373.73
342,833.54,742.00,429.97
343,833.61,743.00,366.48
344,833.68,744.00,400.13
345,833.75,745.00,459.35
346,833.82,746.00,476.11
347,833.89,747.00,548.55
348,833.96,748.00,640.96
349,834.03,749.00,586.92
350,834.10,750.00,582.90
351,834.17,751.00,719.03
352,834.24,752.00,739.26
353,834.31,753.00,665.20
354,834.38,754.00,805.41
355,834.45,755.00,763.73
356,834.52,756.00,688.05
357,834.59,757.00,640.01
358,834.65,758.00,527.56
359,834.72,759.00,452.76
360,834.79,760.00,347.88
361,834.86,761.00,303.55
362,834.93,762.00,242.61
363,835.00,763.00,204.57
364,835.07,764.00,179.22
365,835.14,765.00,165.67
366,835.21,766.00,188.23
367,835.28,767.00,228.50
368,835.35,768.00,252.63
369,835.42,769.00,359.35
370,835.49,770.00,514.26
371,835.56,771.00,831.72
372,835.63,772.00,1323.00
373,835.70,773.00,2305.27
374,835.77,774.00,3822.63
375,835.84,775.00,6412.22
376,835.91,776.00,10910.37
377,835.98,777.00,17083.68
378,836.05,778.00,25977.46
379,836.12,779.00,38688.24
380,836.19,780.00,52132.55
381,836.26,781.00,66909.50
382,836.33,782.00,80767.62
383,836.40,783.00,90769.63
384,836.47,784.00,94859.63
385,836.54,785.00,93506.00
386,836.61,786.00,86905.85
387,836.68,787.00,76957.74
388,836.75,788.00,64706.25
389,836.82,789.00,52113.08
390,836.89,790.00,40958.45
391,836.96,791.00,31161.96
392,837.03,792.00,23608.80
393,837.10,793.00,18042.62
394,837.17,794.00,13642.41
395,837.24,795.00,10608.98
396,837.31,796.00,8411.04
397,837.38,797.00,6898.20
398,837.45,798.00,5916.92
399,837.52,799.00,5009.71
400,837.59,800.00,4758.76
401,837.66,801.00,4357.71
402,837.73,802.00,4410.42
403,837.80,803.00,4370.33
404,837.87,804.00,4706.23
405,837.94,805.00,4651.32
406,838.01,806.00,5007.05
407,838.08,807.00,5147.05
408,838.15,808.00,5173.39
409,838.22,809.00,5188.38
410,838.29,810.00,4984.77
411,838.36,811.00,4673.93
412,838.43,812.00,4299.10
413,838.50,813.00,3686.51
414,838.57,814.00,3104.89
415,838.64,815.00,2756.74
416,838.72,816.00,2156.97
417,838.79,817.00,1745.52
418,838.86,818.00,1440.78
419,838.93,819.00,1103.64
420,839.00,820.00,984.54
421,839.07,821.00,818.38
422,839.14,822.00,698.50
423,839.21,823.00,640.15
424,839.28,824.00,594.25
425,839.35,825.00,570.37
426,839.42,826.00,560.31
427,839.49,827.00,548.86
428,839.56,828.00,560.68
429,839.63,829.00,566.30
430,839.70,830.00,604.54
431,839.77,831.00,621.13
432,839.84,832.00,708.74
433,839.91,833.00,759.34
434,839.98,834.00,713.78
435,840.05,835.00,662.33
436,840.12,836.00,635.11
437,840.19,837.00,596.86
438,840.27,838.00,598.12
439,840.34,839.00,581.47
440,840.41,840.00,559.39
441,840.48,841.00,533.64
442,840.55,842.00,534.34
443,840.62,843.00,438.74
444,840.69,844.00,390.72
445,840.76,845.00,413.02
446,840.83,846.00,405.01
447,840.90,847.00,362.24
448,840.97,848.00,406.56
449,841.04,849.00,323.33
450,841.11,850.00,333.12
451,841.18,851.00,163.66
452,841.26,852.00,140.51
453,841.33,853.00,86.37
454,841.40,854.00,62.85
455,841.47,855.00,52.09
456,841.54,856.00,16.05
457,841.61,857.00,10.41
458,841.68,858.00,4.63
459,841.75,859.00,1.47
460,841.82,860.00,0.42
461,841.89,861.00,0.35
462,841.96,862.00,0.12
463,842.03,863.00,0.17
464,842.11,864.00,0.01
465,842.18,865.00,0.00
466,842.25,866.00,0.00
467,842.32,867.00,0.00
468,842.39,868.00,0.00
469,842.46,869.00,0.00
470,842.53,870.00,0.00
471,842.60,871.00,0.02
472,842.67,872.00,0.00
473,842.74,873.00,0.00
474,842.82,874.00,0.00
475,842.89,875.00,0.00
476,842.96,876.00,6.90
477,843.03,877.00,3.47
478,843.10,878.00,42.05
479,843.17,879.00,127.75
480,843.24,880.00,0.00
481,843.31,881.00,40.38
482,843.38,882.00,0.00
483,843.45,883.00,125.56
484,843.53,884.00,64.97
485,843.60,885.00,0.00
486,843.67,886.00,0.00
487,843.74,887.00,40.04
488,843.81,888.00,0.00
489,843.88,889.00,0.00
490,843.95,890.00,0.00
491,844.02,891.00,0.00
492,844.10,892.00,81.91
493,844.17,893.00,0.00
494,844.24,894.00,26.46
495,844.31,895.00,153.07
496,844.38,896.00,0.00
497,844.45,897.00,147.17
498,844.52,898.00,9.70
499,844.59,899.00,50.57
500,844.67,900.00,32.51
501,844.74,901.00,0.00
502,844.81,902.00,0.00
503,844.88,903.00,0.00
504,844.95,904.00,0.06
505,845.02,905.00,0.00
506,845.09,906.00,0.00
507,845.17,907.00,0.00
508,845.24,908.00,0.01
509,845.31,909.00,0.00
510,845.38,910.00,0.00
511,845.45,911.00,0.00
512,845.52,912.00,0.00
513,845.59,913.00,0.00
514,845.67,914.00,0.03
515,845.74,915.00,0.00
516,845.81,916.00,0.00
517,845.88,917.00,0.00
518,845.95,918.00,0.30
519,846.02,919.00,3.53
520,846.10,920.00,0.00
521,846.17,921.00,8.33
522,846.24,922.00,20.99
523,846.31,923.00,36.64
524,846.38,924.00,118.22
525,846.45,925.00,24.87
526,846.53,926.00,138.46
527,846.60,927.00,225.15
528,846.67,928.00,0.00
529,846.74,929.00,0.00
530,846.81,930.00,40.64
531,846.88,931.00,90.19
532,846.96,932.00,107.93
533,847.03,933.00,51.23
534,847.10,934.00,54.91
535,847.17,935.00,88.08
536,847.24,936.00,31.83
537,847.31,937.00,22.60
538,847.39,938.00,40.91
539,847.46,939.00,54.04
540,847.53,940.00,65.22
541,847.60,941.00,12.91
542,847.67,942.00,88.47
543,847.75,943.00,53.10
544,847.82,944.00,48.09
545,847.89,945.00,72.86
546,847.96,946.00,85.20
547,848.03,947.00,144.25
548,848.10,948.00,168.99
549,848.18,949.00,121.12
550,848.25,950.00,166.82
551,848.32,951.00,159.04
552,848.39,952.00,176.86
553,848.46,953.00,195.76
554,848.54,954.00,245.37
555,848.61,955.00,264.65
556,848.68,956.00,292.46
557,848.75,957.00,311.63
558,848.82,958.00,410.79
559,848.90,959.00,416.28
560,848.97,960.00,527.04
561,849.04,961.00,528.32
562,849.11,962.00,594.50
563,849.18,963.00,730.77
564,849.26,964.00,848.34
565,849.33,965.00,962.63
566,849.40,966.00,1132.88
567,849.47,967.00,1330.02
568,849.55,968.00,1543.95
569,849.62,969.00,1636.88
570,849.69,970.00,1770.21
571,849.76,971.00,2044.38
572,849.83,972.00,2004.07
573,849.91,973.00,1868.76
574,849.98,974.00,1641.91
575,850.05,975.00,1565.44
576,850.12,976.00,1185.07
577,850.20,977.00,977.22
578,850.27,978.00,747.96
579,850.34,979.00,600.57
580,850.41,980.00,448.27
581,850.48,981.00,335.23
582,850.56,982.00,298.77
583,850.63,983.00,294.28
584,850.70,984.00,288.93
585,850.77,985.00,320.88
586,850.85,986.00,413.81
587,850.92,987.00,516.26
588,850.99,988.00,832.91
589,851.06,989.00,1246.34
590,851.14,990.00,2013.32
591,851.21,991.00,3341.88
592,851.28,992.00,5930.50
593,851.35,993.00,9765.68
594,851.43,994.00,15466.51
595,851.50,995.00,24156.76
596,851.57,996.00,36499.26
597,851.64,997.00,51010.04
598,851.72,998.00,68545.55
599,851.79,999.00,85970.30
600,851.86,1000.00,101123.22
601,851.93,1001.00,111577.50
602,852.01,1002.00,115573.99
603,852.08,1003.00,113630.13
604,852.15,1004.00,105317.73
605,852.22,1005.00,93253.58
606,852.30,1006.00,78735.99
607,852.37,1007.00,64394.86
608,852.44,1008.00,51547.91
609,852.51,1009.00,39588.58
610,852.59,1010.00,30959.34
611,852.66,1011.00,23272.30
612,852.73,1012.00,18021.78
613,852.81,1013.00,13888.21
614,852.88,1014.00,11405.76
615,852.95,1015.00,9575.17
616,853.02,1016.00,8409.58
617,853.10,1017.00,7699.35
618,853.17,1018.00,7985.99
619,853.24,1019.00,8268.74
620,853.32,1020.00,9188.04
621,853.39,1021.00,11183.16
622,853.46,1022.00,13266.48
623,853.53,1023.00,16485.21
624,853.61,1024.00,20281.72
625,853.68,1025.00,25465.33
626,853.75,1026.00,30243.66
627,853.83,1027.00,35856.77
628,853.90,1028.00,39884.43
629,853.97,1029.00,43800.20
630,854.04,1030.00,43769.19
631,854.12,1031.00,42521.82
632,854.19,1032.00,38951.86
633,854.26,1033.00,32122.98
634,854.34,1034.00,26307.27
635,854.41,1035.00,20241.71
636,854.48,1036.00,15243.00
637,854.55,1037.00,10724.22
638,854.63,1038.00,7658.66
639,854.70,1039.00,5264.59
640,854.77,1040.00,3571.96
641,854.85,1041.00,2490.87
642,854.92,1042.00,1905.77
643,854.99,1043.00,1362.74
644,855.07,1044.00,1065.29
645,855.14,1045.00,786.09
646,855.21,1046.00,766.80
647,855.29,1047.00,692.25
648,855.36,1048.00,679.51
649,855.43,1049.00,683.12
650,855.51,1050.00,742.89
651,855.58,1051.00,837.76
652,855.65,1052.00,887.22
653,855.72,1053.00,994.53
654,855.80,1054.00,1063.36
655,855.87,1055.00,1177.85
656,855.94,1056.00,1311.94
657,856.02,1057.00,1381.53
658,856.09,1058.00,1374.03
659,856.16,1059.00,1342.34
660,856.24,1060.00,1113.89
661,856.31,1061.00,1060.87
662,856.38,1062.00,777.20
663,856.46,1063.00,703.37
664,856.53,1064.00,607.39
665,856.60,1065.00,520.83
666,856.68,1066.00,419.61
667,856.75,1067.00,307.65
668,856.82,1068.00,305.83
669,856.90,1069.00,250.13
670,856.97,1070.00,239.69
671,857.04,1071.00,245.15
672,857.12,1072.00,269.72
673,857.19,1073.00,241.60
674,857.27,1074.00,296.51
675,857.34,1075.00,324.78
676,857.41,1076.00,397.52
677,857.49,1077.00,350.68
678,857.56,1078.00,416.55
679,857.63,1079.00,328.50
680,857.71,1080.00,427.57
681,857.78,1081.00,438.20
682,857.85,1082.00,396.75
683,857.93,1083.00,395.59
684,858.00,1084.00,384.38
685,858.07,1085.00,370.12
686,858.15,1086.00,421.36
687,858.22,1087.00,325.09
688,858.30,1088.00,376.39
689,858.37,1089.00,393.38
690,858.44,1090.00,322.27
691,858.52,1091.00,204.77
692,858.59,1092.00,200.81
693,858.66,1093.00,157.43
694,858.74,1094.00,147.51
695,858.81,1095.00,80.81
696,858.89,1096.00,91.49
697,858.96,1097.00,95.20
698,859.03,1098.00,76.93
699,859.11,1099.00,30.93
700,859.18,1100.00,41.55
701,859.25,1101.00,39.54
702,859.33,1102.00,53.60
703,859.40,1103.00,61.52
704,859.48,1104.00,35.58
705,859.55,1105.00,78.57
706,859.62,1106.00,59.41
707,859.70,1107.00,111.40
708,859.77,1108.00,81.98
709,859.85,1109.00,106.40
710,859.92,1110.00,51.74
711,859.99,1111.00,112.64
712,860.07,1112.00,74.24
713,860.14,1113.00,124.39
714,860.22,1114.00,119.28
715,860.29,1115.00,112.02
716,860.36,1116.00,81.82
717,860.44,1117.00,23.64
718,860.51,1118.00,114.24
719,860.59,1119.00,59.61
720,860.66,1120.00,71.87
721,860.73,1121.00,75.67
722,860.81,1122.00,18.36
723,860.88,1123.00,60.49
724,860.96,1124.00,67.79
725,861.03,1125.00,89.24
726,861.10,1126.00,123.80
727,861.18,1127.00,120.69
728,861.25,1128.00,131.05
729,861.33,1129.00,149.48
730,861.40,1130.00,139.86
731,861.47,1131.00,132.12
732,861.55,1132.00,172.78
733,861.62,1133.00,188.02
734,861.70,1134.00,196.58
735,861.77,1135.00,218.76
736,861.85,1136.00,245.97
737,861.92,1137.00,267.46
738,861.99,1138.00,285.68
739,862.07,1139.00,315.76
740,862.14,1140.00,387.29
741,862.22,1141.00,497.11
742,862.29,1142.00,566.40
743,862.37,1143.00,773.63
744,862.44,1144.00,986.36
745,862.52,1145.00,1329.46
746,862.59,1146.00,1710.99
747,862.66,1147.00,2296.61
748,862.74,1148.00,2994.94
749,862.81,1149.00,3957.76
750,862.89,1150.00,4597.91
751,862.96,1151.00,5750.82
752,863.04,1152.00,6537.43
753,863.11,1153.00,7572.23
754,863.19,1154.00,7805.48
755,863.26,1155.00,8082.71
756,863.33,1156.00,7853.87
757,863.41,1157.00,7834.39
758,863.48,1158.00,7112.15
759,863.56,1159.00,6564.38
760,863.63,1160.00,5796.28
761,863.71,1161.00,5529.81
762,863.78,1162.00,4675.06
763,863.86,1163.00,4377.49
764,863.93,1164.00,3812.67
765,864.01,1165.00,3759.86
766,864.08,1166.00,3406.22
767,864.15,1167.00,3556.85
768,864.23,1168.00,3432.90
769,864.30,1169.00,3900.54
770,864.38,1170.00,3801.75
771,864.45,1171.00,4493.75
772,864.53,1172.00,4715.99
773,864.60,1173.00,5623.80
774,864.68,1174.00,5884.12
775,864.75,1175.00,6838.96
776,864.83,1176.00,7336.41
777,864.90,1177.00,8334.59
778,864.98,1178.00,8429.58
779,865.05,1179.00,8497.60
780,865.13,1180.00,8488.45
781,865.20,1181.00,8195.82
782,865.28,1182.00,7057.25
783,865.35,1183.00,6365.97
784,865.43,1184.00,5097.63
785,865.50,1185.00,4273.63
786,865.58,1186.00,3266.15
787,865.65,1187.00,2543.82
788,865.73,1188.00,1859.35
789,865.80,1189.00,1402.48
790,865.88,1190.00,1085.47
791,865.95,1191.00,895.37
792,866.03,1192.00,714.83
793,866.10,1193.00,611.54
794,866.18,1194.00,608.51
795,866.25,1195.00,564.99
796,866.33,1196.00,670.44
797,866.40,1197.00,751.62
798,866.48,1198.00,1031.93
799,866.55,1199.00,1394.40
800,866.63,1200.00,1988.66
801,866.70,1201.00,2875.46
802,866.78,1202.00,4179.64
803,866.85,1203.00,6232.28
804,866.93,1204.00,9422.66
805,867.00,1205.00,12667.33
806,867.08,1206.00,17713.38
807,867.15,1207.00,22067.11
808,867.23,1208.00,26843.67
809,867.30,1209.00,30333.99
810,867.38,1210.00,32410.05
811,867.45,1211.00,31555.85
812,867.53,1212.00,28215.01
813,867.60,1213.00,23877.06
814,867.68,1214.00,19686.57
815,867.75,1215.00,14878.03
816,867.83,1216.00,10764.45
817,867.90,1217.00,7502.52
818,867.98,1218.00,5174.96
819,868.06,1219.00,3471.08
820,868.13,1220.00,2389.58
821,868.21,1221.00,1604.42
822,868.28,1222.00,1025.61
823,868.36,1223.00,705.70
824,868.43,1224.00,581.66
825,868.51,1225.00,454.92
826,868.58,1226.00,353.51
827,868.66,1227.00,332.25
828,868.73,1228.00,287.24
829,868.81,1229.00,290.22
830,868.89,1230.00,288.37
831,868.96,1231.00,322.79
832,869.04,1232.00,343.21
833,869.11,1233.00,362.64
834,869.19,1234.00,401.06
835,869.26,1235.00,473.71
836,869.34,1236.00,455.09
837,869.41,1237.00,484.92
838,869.49,1238.00,488.60
839,869.57,1239.00,452.94
840,869.64,1240.00,483.78
841,869.72,1241.00,436.04
842,869.79,1242.00,431.49
843,869.87,1243.00,250.56
844,869.94,1244.00,285.08
845,870.02,1245.00,212.19
846,870.09,1246.00,233.61
847,870.17,1247.00,144.95
848,870.25,1248.00,141.80
849,870.32,1249.00,159.87
850,870.40,1250.00,154.21
851,870.47,1251.00,100.48
852,870.55,1252.00,139.49
853,870.63,1253.00,159.77
854,870.70,1254.00,168.62
855,870.78,1255.00,139.61
856,870.85,1256.00,215.99
857,870.93,1257.00,190.00
858,871.00,1258.00,173.31
859,871.08,1259.00,87.91
860,871.16,1260.00,118.69
861,871.23,1261.00,156.92
862,871.31,1262.00,129.88
863,871.38,1263.00,119.14
864,871.46,1264.00,120.87
865,871.54,1265.00,182.43
866,871.61,1266.00,119.17
867,871.69,1267.00,120.07
868,871.76,1268.00,84.59
869,871.84,1269.00,73.96
870,871.92,1270.00,102.62
871,871.99,1271.00,136.52
872,872.07,1272.00,82.20
873,872.14,1273.00,83.87
874,872.22,1274.00,60.42
875,872.30,1275.00,64.46
876,872.37,1276.00,21.84
877,872.45,1277.00,47.73
878,872.52,1278.00,48.37
879,872.60,1279.00,50.43
880,872.68,1280.00,15.36
881,872.75,1281.00,23.78
882,872.83,1282.00,10.42
883,872.91,1283.00,0.00
884,872.98,1284.00,0.00
885,873.06,1285.00,0.00
886,873.13,1286.00,33.82
887,873.21,1287.00,34.42
888,873.29,1288.00,64.38
889,873.36,1289.00,48.47
890,873.44,1290.00,26.03
891,873.52,1291.00,93.50
892,873.59,1292.00,109.69
893,873.67,1293.00,123.51
894,873.74,1294.00,162.30
895,873.82,1295.00,264.12
896,873.90,1296.00,183.61
897,873.97,1297.00,92.39
898,874.05,1298.00,144.71
899,874.13,1299.00,164.74
900,874.20,1300.00,142.29
901,874.28,1301.00,48.28
902,874.36,1302.00,126.21
903,874.43,1303.00,102.57
904,874.51,1304.00,110.73
905,874.58,1305.00,117.62
906,874.66,1306.00,79.19
907,874.74,1307.00,119.99
908,874.81,1308.00,164.40
909,874.89,1309.00,163.33
910,874.97,1310.00,198.72
911,875.04,1311.00,327.81
912,875.12,1312.00,314.69
913,875.20,1313.00,304.60
914,875.27,1314.00,364.37
915,875.35,1315.00,429.47
916,875.43,1316.00,482.14
917,875.50,1317.00,393.17
918,875.58,1318.00,473.63
919,875.66,1319.00,512.69
920,875.73,1320.00,433.23
921,875.81,1321.00,344.74
922,875.89,1322.00,461.47
923,875.96,1323.00,458.86
924,876.04,1324.00,534.44
925,876.12,1325.00,317.44
926,876.19,1326.00,426.71
927,876.27,1327.00,386.80
928,876.35,1328.00,344.20
929,876.42,1329.00,331.66
930,876.50,1330.00,327.21
931,876.58,1331.00,338.42
932,876.65,1332.00,319.39
933,876.73,1333.00,236.48
934,876.81,1334.00,287.76
935,876.89,1335.00,278.61
936,876.96,1336.00,266.82
937,877.04,1337.00,228.59
938,877.12,1338.00,308.94
939,877.19,1339.00,398.34
940,877.27,1340.00,453.45
941,877.35,1341.00,386.87
942,877.42,1342.00,502.36
943,877.50,1343.00,524.08
944,877.58,1344.00,633.78
945,877.65,1345.00,700.12
946,877.73,1346.00,727.15
947,877.81,1347.00,709.57
948,877.89,1348.00,670.20
949,877.96,1349.00,636.45
950,878.04,1350.00,653.53
951,878.12,1351.00,612.22
952,878.19,1352.00,542.16
953,878.27,1353.00,528.81
954,878.35,1354.00,452.42
955,878.43,1355.00,418.15
956,878.50,1356.00,413.58
957,878.58,1357.00,393.19
958,878.66,1358.00,376.55
959,878.73,1359.00,369.23
960,878.81,1360.00,386.63
961,878.89,1361.00,376.81
962,878.97,1362.00,407.03
963,879.04,1363.00,412.42
964,879.12,1364.00,507.67
965,879.20,1365.00,590.32
966,879.28,1366.00,692.09
967,879.35,1367.00,921.79
968,879.43,1368.00,1132.58
969,879.51,1369.00,1429.67
970,879.58,1370.00,1838.87
971,879.66,1371.00,2436.73
972,879.74,1372.00,3095.08
973,879.82,1373.00,4179.56
974,879.89,1374.00,4950.08
975,879.97,1375.00,6078.40
976,880.05,1376.00,7264.43
977,880.13,1377.00,8186.14
978,880.20,1378.00,9076.57
979,880.28,1379.00,9229.18
980,880.36,1380.00,9606.72
981,880.44,1381.00,9075.43
982,880.51,1382.00,8639.54
983,880.59,1383.00,7549.91
984,880.67,1384.00,6603.50
985,880.75,1385.00,5562.70
986,880.82,1386.00,4863.68
987,880.90,1387.00,3876.83
988,880.98,1388.00,3189.75
989,881.06,1389.00,2642.36
990,881.13,1390.00,2140.45
991,881.21,1391.00,1763.20
992,881.29,1392.00,1432.16
993,881.37,1393.00,1186.17
994,881.45,1394.00,1048.65
995,881.52,1395.00,920.76
996,881.60,1396.00,833.35
997,881.68,1397.00,814.92
998,881.76,1398.00,761.00
999,881.83,1399.00,723.56
1000,881.91,1400.00,749.17
1001,881.99,1401.00,814.51
1002,882.07,1402.00,853.88
1003,882.15,1403.00,900.49
1004,882.22,1404.00,898.51
1005,882.30,1405.00,981.78
1006,882.38,1406.00,1043.18
1007,882.46,1407.00,1090.36
1008,882.53,1408.00,1088.28
1009,882.61,1409.00,1105.20
1010,882.69,1410.00,1145.13
1011,882.77,1411.00,1151.95
1012,882.85,1412.00,1160.40
1013,882.92,1413.00,1110.50
1014,883.00,1414.00,1144.47
1015,883.08,1415.00,1142.31
1016,883.16,1416.00,1185.37
1017,883.24,1417.00,1187.06
1018,883.31,1418.00,1174.50
1019,883.39,1419.00,1170.57
1020,883.47,1420.00,1223.80
1021,883.55,1421.00,1242.73
1022,883.63,1422.00,1302.60
1023,883.70,1423.00,1321.38
1024,883.78,1424.00,1464.73
1025,883.86,1425.00,1512.26
1026,883.94,1426.00,1575.56
1027,884.02,1427.00,1691.43
1028,884.10,1428.00,1759.61
1029,884.17,1429.00,1850.88
1030,884.25,1430.00,1887.37
1031,884.33,1431.00,1971.49
1032,884.41,1432.00,2065.91
1033,884.49,1433.00,2052.83
1034,884.56,1434.00,2089.40
1035,884.64,1435.00,2176.40
1036,884.72,1436.00,2182.93
1037,884.80,1437.00,2205.50
1038,884.88,1438.00,2265.43
1039,884.96,1439.00,2334.27
1040,885.03,1440.00,2386.99
1041,885.11,1441.00,2396.41
1042,885.19,1442.00,2457.21
1043,885.27,1443.00,2539.73
1044,885.35,1444.00,2489.48
1045,885.43,1445.00,2484.37
1046,885.50,1446.00,2492.90
1047,885.58,1447.00,2503.15
1048,885.66,1448.00,2450.92
1049,885.74,1449.00,2327.78
1050,885.82,1450.00,2261.48
1051,885.90,1451.00,2117.41
1052,885.98,1452.00,1937.96
1053,886.05,1453.00,1684.77
1054,886.13,1454.00,1637.48
1055,886.21,1455.00,1409.31
1056,886.29,1456.00,1286.44
1057,886.37,1457.00,1154.75
1058,886.45,1458.00,1072.11
1059,886.52,1459.00,982.34
1060,886.60,1460.00,876.09
1061,886.68,1461.00,835.12
1062,886.76,1462.00,770.08
1063,886.84,1463.00,758.79
1064,886.92,1464.00,773.13
1065,887.00,1465.00,791.77
1066,887.08,1466.00,887.52
1067,887.15,1467.00,888.54
1068,887.23,1468.00,915.34
1069,887.31,1469.00,904.57
1070,887.39,1470.00,973.40
1071,887.47,1471.00,1020.87
1072,887.55,1472.00,1003.53
1073,887.63,1473.00,925.65
1074,887.71,1474.00,979.93
1075,887.78,1475.00,988.21
1076,887.86,1476.00,901.71
1077,887.94,1477.00,841.56
1078,888.02,1478.00,778.79
1079,888.10,1479.00,723.65
1080,888.18,1480.00,723.45
1081,888.26,1481.00,712.74
1082,888.34,1482.00,836.95
1083,888.42,1483.00,797.57
1084,888.49,1484.00,863.18
1085,888.57,1485.00,870.59
1086,888.65,1486.00,851.55
1087,888.73,1487.00,909.70
1088,888.81,1488.00,964.63
1089,888.89,1489.00,953.79
1090,888.97,1490.00,1075.82
1091,889.05,1491.00,1104.73
1092,889.13,1492.00,1092.40
1093,889.21,1493.00,1140.28
1094,889.28,1494.00,1181.74
1095,889.36,1495.00,1228.00
1096,889.44,1496.00,1250.64
1097,889.52,1497.00,1298.12
1098,889.60,1498.00,1331.77
1099,889.68,1499.00,1414.54
1100,889.76,1500.00,1397.95
1101,889.84,1501.00,1449.31
1102,889.92,1502.00,1376.83
1103,890.00,1503.00,1389.90
1104,890.08,1504.00,1335.00
1105,890.15,1505.00,1300.86
1106,890.23,1506.00,1333.50
1107,890.31,1507.00,1227.18
1108,890.39,1508.00,1068.03
1109,890.47,1509.00,1131.58
1110,890.55,1510.00,1072.58
1111,890.63,1511.00,887.95
1112,890.71,1512.00,838.10
1113,890.79,1513.00,751.69
1114,890.87,1514.00,652.79
1115,890.95,1515.00,567.50
1116,891.03,1516.00,446.23
1117,891.11,1517.00,475.30
1118,891.19,1518.00,332.32
1119,891.27,1519.00,305.92
1120,891.35,1520.00,291.12
1121,891.42,1521.00,270.96
1122,891.50,1522.00,344.19
1123,891.58,1523.00,229.83
1124,891.66,1524.00,283.49
1125,891.74,1525.00,347.30
1126,891.82,1526.00,406.41
1127,891.90,1527.00,415.91
1128,891.98,1528.00,425.61
1129,892.06,1529.00,345.46
1130,892.14,1530.00,399.86
1131,892.22,1531.00,332.15
1132,892.30,1532.00,361.38
1133,892.38,1533.00,308.89
1134,892.46,1534.00,304.76
1135,892.54,1535.00,256.17
1136,892.62,1536.00,174.53
1137,892.70,1537.00,139.23
1138,892.78,1538.00,169.89
1139,892.86,1539.00,166.83
1140,892.94,1540.00,161.00
1141,893.02,1541.00,155.72
1142,893.10,1542.00,171.91
1143,893.18,1543.00,175.63
1144,893.26,1544.00,175.63
1145,893.34,1545.00,197.37
1146,893.42,1546.00,228.64
1147,893.50,1547.00,277.32
1148,893.58,1548.00,316.12
1149,893.66,1549.00,290.83
1150,893.73,1550.00,353.77
1151,893.81,1551.00,370.49
1152,893.89,1552.00,403.01
1153,893.97,1553.00,411.53
1154,894.05,1554.00,386.37
1155,894.13,1555.00,442.82
1156,894.21,1556.00,420.88
1157,894.29,1557.00,406.87
1158,894.37,1558.00,445.18
1159,894.45,1559.00,490.69
1160,894.53,1560.00,458.27
1161,894.61,1561.00,501.83
1162,894.69,1562.00,452.21
1163,894.77,1563.00,481.43
1164,894.85,1564.00,514.16
1165,894.93,1565.00,556.66
1166,895.01,1566.00,641.34
1167,895.09,1567.00,713.17
1168,895.18,1568.00,799.49
1169,895.26,1569.00,871.34
1170,895.34,1570.00,953.99
1171,895.42,1571.00,1108.18
1172,895.50,1572.00,1295.43
1173,895.58,1573.00,1534.15
1174,895.66,1574.00,1716.51
1175,895.74,1575.00,2076.11
1176,895.82,1576.00,2348.81
1177,895.90,1577.00,2714.52
1178,895.98,1578.00,3043.56
1179,896.06,1579.00,3527.51
1180,896.14,1580.00,4013.90
1181,896.22,1581.00,4384.50
1182,896.30,1582.00,4615.59
1183,896.38,1583.00,5023.58
1184,896.46,1584.00,5247.50
1185,896.54,1585.00,5499.32
1186,896.62,1586.00,5600.10
1187,896.70,1587.00,5736.28
1188,896.78,1588.00,5701.65
1189,896.86,1589.00,5752.81
1190,896.94,1590.00,5741.54
1191,897.02,1591.00,5608.77
1192,897.10,1592.00,5759.42
1193,897.18,1593.00,5881.59
1194,897.26,1594.00,6083.21
1195,897.34,1595.00,6219.82
1196,897.42,1596.00,6561.20
1197,897.50,1597.00,6930.18
1198,897.59,1598.00,7180.52
1199,897.67,1599.00,7688.88
1200,897.75,1600.00,8220.03
1201,897.83,1601.00,8870.75
1202,897.91,1602.00,9224.49
1203,897.99,1603.00,9831.01
1204,898.07,1604.00,10231.94
1205,898.15,1605.00,10653.46
1206,898.23,1606.00,10678.53
1207,898.31,1607.00,10638.10
1208,898.39,1608.00,10619.31
1209,898.47,1609.00,9982.48
1210,898.55,1610.00,9506.85
1211,898.63,1611.00,8810.23
1212,898.71,1612.00,8185.71
1213,898.80,1613.00,7215.26
1214,898.88,1614.00,6326.52
1215,898.96,1615.00,5554.62
1216,899.04,1616.00,4759.38
1217,899.12,1617.00,4077.57
1218,899.20,1618.00,3521.69
1219,899.28,1619.00,3026.32
1220,899.36,1620.00,2688.79
1221,899.44,1621.00,2335.53
1222,899.52,1622.00,2049.89
1223,899.60,1623.00,1824.01
1224,899.69,1624.00,1590.50
1225,899.77,1625.00,1428.94
1226,899.85,1626.00,1373.78
1227,899.93,1627.00,1222.41
1228,900.01,1628.00,1208.89
1229,900.09,1629.00,1195.01
1230,900.17,1630.00,1187.63
1231,900.25,1631.00,1138.30
1232,900.33,1632.00,1187.02
1233,900.41,1633.00,1159.66
1234,900.50,1634.00,1149.98
1235,900.58,1635.00,1082.77
1236,900.66,1636.00,1122.31
1237,900.74,1637.00,1061.44
1238,900.82,1638.00,985.39
1239,900.90,1639.00,883.76
1240,900.98,1640.00,828.80
1241,901.06,1641.00,732.40
1242,901.14,1642.00,660.53
1243,901.23,1643.00,563.92
1244,901.31,1644.00,507.08
1245,901.39,1645.00,446.82
1246,901.47,1646.00,388.85
1247,901.55,1647.00,338.61
1248,901.63,1648.00,324.45
1249,901.71,1649.00,318.35
1250,901.79,1650.00,308.44
1251,901.88,1651.00,294.49
1252,901.96,1652.00,288.04
1253,902.04,1653.00,299.51
1254,902.12,1654.00,274.09
1255,902.20,1655.00,222.65
1256,902.28,1656.00,339.94
1257,902.36,1657.00,312.91
1258,902.45,1658.00,350.37
1259,902.53,1659.00,293.03
1260,902.61,1660.00,324.99
1261,902.69,1661.00,255.19
1262,902.77,1662.00,298.96
1263,902.85,1663.00,405.99
1264,902.93,1664.00,361.04
1265,903.02,1665.00,428.29
1266,903.10,1666.00,366.28
1267,903.18,1667.00,254.12
1268,903.26,1668.00,285.69
1269,903.34,1669.00,298.09
1270,903.42,1670.00,257.19
1271,903.51,1671.00,191.67
1272,903.59,1672.00,243.12
1273,903.67,1673.00,239.19
1274,903.75,1674.00,234.92
1275,903.83,1675.00,189.54
1276,903.91,1676.00,177.12
1277,904.00,1677.00,151.05
1278,904.08,1678.00,176.30
1279,904.16,1679.00,185.93
1280,904.24,1680.00,174.60
1281,904.32,1681.00,198.48
1282,904.40,1682.00,210.05
1283,904.49,1683.00,199.19
1284,904.57,1684.00,186.65
1285,904.65,1685.00,149.61
1286,904.73,1686.00,216.22
1287,904.81,1687.00,168.56
1288,904.90,1688.00,208.03
1289,904.98,1689.00,243.99
1290,905.06,1690.00,215.66
1291,905.14,1691.00,189.54
1292,905.22,1692.00,189.04
1293,905.31,1693.00,189.90
1294,905.39,1694.00,246.07
1295,905.47,1695.00,223.63
1296,905.55,1696.00,239.84
1297,905.63,1697.00,207.64
1298,905.72,1698.00,216.86
1299,905.80,1699.00,239.18
1300,905.88,1700.00,202.92
1301,905.96,1701.00,120.55
1302,906.04,1702.00,113.92
1303,906.13,1703.00,140.05
1304,906.21,1704.00,124.33
1305,906.29,1705.00,113.17
1306,906.37,1706.00,115.85
1307,906.45,1707.00,97.95
1308,906.54,1708.00,107.21
1309,906.62,1709.00,137.55
1310,906.70,1710.00,106.43
1311,906.78,1711.00,142.49
1312,906.87,1712.00,132.43
1313,906.95,1713.00,101.39
1314,907.03,1714.00,118.84
1315,907.11,1715.00,114.59
1316,907.19,1716.00,136.92
1317,907.28,1717.00,136.79
1318,907.36,1718.00,43.26
1319,907.44,1719.00,99.12
1320,907.52,1720.00,52.47
1321,907.61,1721.00,0.00
1322,907.69,1722.00,33.95
1323,907.77,1723.00,54.77
1324,907.85,1724.00,89.46
1325,907.94,1725.00,66.12
1326,908.02,1726.00,53.27
1327,908.10,1727.00,8.28
1328,908.18,1728.00,0.00
1329,908.27,1729.00,18.73
1330,908.35,1730.00,37.98
1331,908.43,1731.00,20.34
1332,908.51,1732.00,30.56
1333,908.60,1733.00,41.25
1334,908.68,1734.00,26.75
1335,908.76,1735.00,46.43
1336,908.84,1736.00,39.26
1337,908.93,1737.00,24.98
1338,909.01,1738.00,68.10
1339,909.09,1739.00,73.71
1340,909.17,1740.00,149.69
1341,909.26,1741.00,153.51
1342,909.34,1742.00,154.34
1343,909.42,1743.00,69.82
1344,909.50,1744.00,32.38
1345,909.59,1745.00,87.21
1346,909.67,1746.00,83.07
1347,909.75,1747.00,79.88
1348,909.84,1748.00,28.25
1349,909.92,1749.00,67.57
1350,910.00,1750.00,41.54
1351,910.08,1751.00,20.59
1352,910.17,1752.00,16.91
1353,910.25,1753.00,15.73
1354,910.33,1754.00,26.79
1355,910.42,1755.00,0.00
1356,910.50,1756.00,32.68
1357,910.58,1757.00,39.71
1358,910.66,1758.00,35.50
1359,910.75,1759.00,58.57
1360,910.83,1760.00,43.84
1361,910.91,1761.00,58.55
1362,911.00,1762.00,78.28
1363,911.08,1763.00,85.96
1364,911.16,1764.00,69.23
1365,911.24,1765.00,99.83
1366,911.33,1766.00,71.05
1367,911.41,1767.00,32.46
1368,911.49,1768.00,16.42
1369,911.58,1769.00,12.89
1370,911.66,1770.00,26.04
1371,911.74,1771.00,2.13
1372,911.83,1772.00,21.17
1373,911.91,1773.00,22.04
1374,911.99,1774.00,13.34
1375,912.08,1775.00,15.45
1376,912.16,1776.00,35.80
1377,912.24,1777.00,21.05
1378,912.33,1778.00,46.13
1379,912.41,1779.00,21.25
1380,912.49,1780.00,55.73
1381,912.58,1781.00,40.26
1382,912.66,1782.00,61.62
1383,912.74,1783.00,9.17
1384,912.83,1784.00,21.19
1385,912.91,1785.00,6.69
1386,912.99,1786.00,30.35
1387,913.08,1787.00,0.00
1388,913.16,1788.00,24.01
1389,913.24,1789.00,26.81
1390,913.33,1790.00,11.13
1391,913.41,1791.00,6.24
1392,913.49,1792.00,8.55
1393,913.58,1793.00,2.99
1394,913.66,1794.00,13.27
1395,913.74,1795.00,5.98
1396,913.83,1796.00,10.18
1397,913.91,1797.00,11.07
1398,913.99,1798.00,32.07
1399,914.08,1799.00,0.00
1400,914.16,1800.00,16.13
1401,914.24,1801.00,5.90
1402,914.33,1802.00,36.46
1403,914.41,1803.00,0.00
1404,914.49,1804.00,27.31
1405,914.58,1805.00,54.36
1406,914.66,1806.00,22.38
1407,914.75,1807.00,8.77
1408,914.83,1808.00,12.64
1409,914.91,1809.00,0.00
1410,915.00,1810.00,11.77
1411,915.08,1811.00,10.39
1412,915.16,1812.00,15.08
1413,915.25,1813.00,10.00
1414,915.33,1814.00,37.06
1415,915.42,1815.00,0.00
1416,915.50,1816.00,19.93
1417,915.58,1817.00,2.28
1418,915.67,1818.00,25.94
1419,915.75,1819.00,0.00
1420,915.83,1820.00,16.72
1421,915.92,1821.00,34.12
1422,916.00,1822.00,8.44
1423,916.09,1823.00,0.00
1424,916.17,1824.00,9.79
1425,916.25,1825.00,2.55
1426,916.34,1826.00,7.42
1427,916.42,1827.00,6.21
1428,916.51,1828.00,6.91
1429,916.59,1829.00,6.08
1430,916.67,1830.00,26.50
1431,916.76,1831.00,0.00
1432,916.84,1832.00,12.47
1433,916.93,1833.00,4.98
1434,917.01,1834.00,24.07
1435,917.09,1835.00,0.00
1436,917.18,1836.00,12.10
1437,917.26,1837.00,49.43
1438,917.35,1838.00,20.32
1439,917.43,1839.00,1.02
1440,917.52,1840.00,14.01
1441,917.60,1841.00,5.01
1442,917.68,1842.00,13.38
1443,917.77,1843.00,11.02
1444,917.85,1844.00,13.44
1445,917.94,1845.00,14.34
1446,918.02,1846.00,33.69
1447,918.11,1847.00,9.22
1448,918.19,1848.00,15.11
1449,918.27,1849.00,15.97
1450,918.36,1850.00,29.53
1451,918.44,1851.00,2.29
1452,918.53,1852.00,21.05
1453,918.61,1853.00,56.79
1454,918.70,1854.00,22.19
1455,918.78,1855.00,16.86
1456,918.86,1856.00,24.54
1457,918.95,1857.00,20.66
1458,919.03,1858.00,31.06
1459,919.12,1859.00,25.69
1460,919.20,1860.00,16.69
1461,919.29,1861.00,35.98
1462,919.37,1862.00,51.11
1463,919.46,1863.00,25.05
1464,919.54,1864.00,23.01
1465,919.62,1865.00,20.93
1466,919.71,1866.00,33.47
1467,919.79,1867.00,14.93
1468,919.88,1868.00,22.94
1469,919.96,1869.00,64.14
1470,920.05,1870.00,22.95
1471,920.13,1871.00,28.57
1472,920.22,1872.00,26.52
1473,920.30,1873.00,32.29
1474,920.39,1874.00,48.85
1475,920.47,1875.00,45.30
1476,920.56,1876.00,40.60
1477,920.64,1877.00,56.85
1478,920.73,1878.00,59.95
1479,920.81,1879.00,37.47
1480,920.90,1880.00,28.85
1481,920.98,1881.00,27.61
1482,921.06,1882.00,47.25
1483,921.15,1883.00,25.06
1484,921.23,1884.00,39.72
1485,921.32,1885.00,75.99
1486,921.40,1886.00,31.48
1487,921.49,1887.00,23.01
1488,921.57,1888.00,33.15
1489,921.66,1889.00,36.31
1490,921.74,1890.00,48.25
1491,921.83,1891.00,38.58
1492,921.91,1892.00,34.43
1493,922.00,1893.00,45.70
1494,922.08,1894.00,48.87
1495,922.17,1895.00,21.42
1496,922.25,1896.00,14.15
1497,922.34,1897.00,10.09
1498,922.42,1898.00,28.44
1499,922.51,1899.00,12.08
1500,922.59,1900.00,21.74
1501,922.68,1901.00,61.24
1502,922.76,1902.00,30.43
1503,922.85,1903.00,17.58
1504,922.93,1904.00,32.23
1505,923.02,1905.00,32.09
1506,923.11,1906.00,45.05
1507,923.19,1907.00,35.39
1508,923.28,1908.00,36.25
1509,923.36,1909.00,43.40
1510,923.45,1910.00,58.00
1511,923.53,1911.00,23.49
1512,923.62,1912.00,15.31
1513,923.70,1913.00,18.09
1514,923.79,1914.00,33.09
1515,923.87,1915.00,5.80
1516,923.96,1916.00,25.96
1517,924.04,1917.00,64.26
1518,924.13,1918.00,31.64
1519,924.21,1919.00,27.11
1520,924.30,1920.00,34.76
1521,924.39,1921.00,42.68
1522,924.47,1922.00,51.65
1523,924.56,1923.00,44.76
1524,924.64,1924.00,40.24
1525,924.73,1925.00,42.07
1526,924.81,1926.00,47.60
1527,924.90,1927.00,23.68
1528,924.98,1928.00,15.39
1529,925.07,1929.00,11.79
1530,925.16,1930.00,32.26
1531,925.24,1931.00,0.00
1532,925.33,1932.00,28.43
1533,925.41,1933.00,53.75
1534,925.50,1934.00,19.58
1535,925.58,1935.00,22.10
1536,925.67,1936.00,24.30
1537,925.75,1937.00,11.22
1538,925.84,1938.00,37.01
1539,925.93,1939.00,27.13
1540,926.01,1940.00,32.93
1541,926.10,1941.00,21.38
1542,926.18,1942.00,41.05
1543,926.27,1943.00,10.57
1544,926.35,1944.00,18.24
1545,926.44,1945.00,4.32
1546,926.53,1946.00,22.76
1547,926.61,1947.00,0.00
1548,926.70,1948.00,25.13
1549,926.78,1949.00,43.34
1550,926.87,1950.00,12.33
1551,926.96,1951.00,10.65
1552,927.04,1952.00,18.42
1553,927.13,1953.00,3.03
1554,927.21,1954.00,19.38
1555,927.30,1955.00,11.05
1556,927.39,1956.00,21.14
1557,927.47,1957.00,6.22
1558,927.56,1958.00,27.96
1559,927.64,1959.00,8.54
1560,927.73,1960.00,16.01
1561,927.82,1961.00,11.57
1562,927.90,1962.00,25.39
1563,927.99,1963.00,0.00
1564,928.07,1964.00,22.98
1565,928.16,1965.00,46.64
1566,928.25,1966.00,15.10
1567,928.33,1967.00,6.22
1568,928.42,1968.00,14.42
1569,928.51,1969.00,7.18
1570,928.59,1970.00,20.75
1571,928.68,1971.00,13.20
1572,928.76,1972.00,26.27
1573,928.85,1973.00,13.41
1574,928.94,1974.00,45.07
1575,929.02,1975.00,15.73
1576,929.11,1976.00,19.93
1577,929.20,1977.00,6.26
1578,929.28,1978.00,34.80
1579,929.37,1979.00,0.00
1580,929.45,1980.00,19.29
1581,929.54,1981.00,35.32
1582,929.63,1982.00,11.72
1583,929.71,1983.00,4.00
1584,929.80,1984.00,8.07
1585,929.89,1985.00,2.62
1586,929.97,1986.00,0.61
1587,930.06,1987.00,2.92
1588,930.15,1988.00,2.07
1589,930.23,1989.00,3.91
1590,930.32,1990.00,9.48
1591,930.41,1991.00,5.77
1592,930.49,1992.00,8.29
1593,930.58,1993.00,5.48
1594,930.67,1994.00,20.42
1595,930.75,1995.00,0.00
1596,930.84,1996.00,26.10
1597,930.93,1997.00,64.13
1598,931.01,1998.00,28.46
1599,931.10,1999.00,39.77
1600,931.19,2000.00,21.20
1601,931.27,2001.00,28.61
1602,931.36,2002.00,39.63
1603,931.45,2003.00,31.05
1604,931.53,2004.00,37.97
1605,931.62,2005.00,35.25
1606,931.71,2006.00,53.76
1607,931.79,2007.00,16.69
1608,931.88,2008.00,26.49
1609,931.97,2009.00,2.70
1610,932.05,2010.00,19.76
1611,932.14,2011.00,0.00
1612,932.23,2012.00,22.01
1613,932.31,2013.00,29.06
1614,932.40,2014.00,15.03
1615,932.49,2015.00,6.85
1616,932.57,2016.00,10.48
1617,932.66,2017.00,6.25
1618,932.75,2018.00,5.62
1619,932.84,2019.00,18.75
1620,932.92,2020.00,16.86
1621,933.01,2021.00,21.68
1622,933.10,2022.00,45.35
1623,933.18,2023.00,34.59
1624,933.27,2024.00,25.35
1625,933.36,2025.00,11.91
1626,933.45,2026.00,24.54
1627,933.53,2027.00,0.00
1628,933.62,2028.00,11.24
1629,933.71,2029.00,47.08
1630,933.79,2030.00,12.61
1631,933.88,2031.00,14.33
1632,933.97,2032.00,13.18
1633,934.06,2033.00,17.76
1634,934.14,2034.00,26.89
1635,934.23,2035.00,22.86
1636,934.32,2036.00,20.62
1637,934.40,2037.00,34.11
1638,934.49,2038.00,49.80
1639,934.58,2039.00,34.91
1640,934.67,2040.00,29.99
1641,934.75,2041.00,11.34
1642,934.84,2042.00,46.17
1643,934.93,2043.00,3.47
1644,935.02,2044.00,33.92
1645,935.10,2045.00,60.81
1646,935.19,2046.00,19.53
1647,935.28,2047.00,14.49
1648,935.37,2048.00,13.29
1649,935.45,2049.00,13.21
1650,935.54,2050.00,25.09
1651,935.63,2051.00,29.69
1652,935.72,2052.00,21.64
1653,935.80,2053.00,32.15
1654,935.89,2054.00,35.06
1655,935.98,2055.00,24.67
1656,936.07,2056.00,13.30
1657,936.15,2057.00,8.67
1658,936.24,2058.00,17.87
1659,936.33,2059.00,0.53
1660,936.42,2060.00,15.75
1661,936.51,2061.00,41.32
1662,936.59,2062.00,14.88
1663,936.68,2063.00,14.90
1664,936.77,2064.00,16.30
1665,936.86,2065.00,19.27
1666,936.94,2066.00,37.33
1667,937.03,2067.00,27.56
1668,937.12,2068.00,39.60
1669,937.21,2069.00,53.71
1670,937.30,2070.00,69.76
1671,937.38,2071.00,44.97
1672,937.47,2072.00,31.48
1673,937.56,2073.00,24.85
1674,937.65,2074.00,46.09
1675,937.73,2075.00,6.36
1676,937.82,2076.00,38.02
1677,937.91,2077.00,55.24
1678,938.00,2078.00,23.05
1679,938.09,2079.00,11.28
1680,938.17,2080.00,19.21
1681,938.26,2081.00,13.80
1682,938.35,2082.00,28.72
1683,938.44,2083.00,22.73
1684,938.53,2084.00,25.56
1685,938.61,2085.00,24.81
1686,938.70,2086.00,45.34
1687,938.79,2087.00,14.40
1688,938.88,2088.00,16.60
1689,938.97,2089.00,13.20
1690,939.06,2090.00,28.04
1691,939.14,2091.00,0.00
1692,939.23,2092.00,24.12
1693,939.32,2093.00,48.87
1694,939.41,2094.00,18.36
1695,939.50,2095.00,18.90
1696,939.58,2096.00,20.79
1697,939.67,2097.00,13.29
1698,939.76,2098.00,27.86
1699,939.85,2099.00,24.43
1700,939.94,2100.00,18.43
1701,940.03,2101.00,18.76
1702,940.11,2102.00,44.02
1703,940.20,2103.00,16.47
1704,940.29,2104.00,18.48
1705,940.38,2105.00,7.72
1706,940.47,2106.00,28.25
1707,940.56,2107.00,0.00
1708,940.65,2108.00,23.43
1709,940.73,2109.00,48.88
1710,940.82,2110.00,17.18
1711,940.91,2111.00,12.60
1712,941.00,2112.00,16.44
1713,941.09,2113.00,11.82
1714,941.18,2114.00,23.05
1715,941.27,2115.00,18.41
1716,941.35,2116.00,17.30
1717,941.44,2117.00,13.73
1718,941.53,2118.00,34.48
1719,941.62,2119.00,13.92
1720,941.71,2120.00,15.55
1721,941.80,2121.00,1.69
1722,941.89,2122.00,26.90
1723,941.97,2123.00,0.00
1724,942.06,2124.00,23.74
1725,942.15,2125.00,42.95
1726,942.24,2126.00,12.88
1727,942.33,2127.00,14.82
1728,942.42,2128.00,16.53
1729,942.51,2129.00,4.03
1730,942.60,2130.00,22.46
1731,942.68,2131.00,10.26
1732,942.77,2132.00,18.55
1733,942.86,2133.00,10.06
1734,942.95,2134.00,37.21
1735,943.04,2135.00,5.82
1736,943.13,2136.00,24.83
1737,943.22,2137.00,2.32
1738,943.31,2138.00,35.48
1739,943.40,2139.00,0.00
1740,943.49,2140.00,22.65
1741,943.57,2141.00,42.71
1742,943.66,2142.00,13.25
1743,943.75,2143.00,7.55
1744,943.84,2144.00,8.21
1745,943.93,2145.00,0.00
1746,944.02,2146.00,3.37
1747,944.11,2147.00,1.54
1748,944.20,2148.00,5.26
1749,944.29,2149.00,7.04
1750,944.38,2150.00,19.40
1751,944.47,2151.00,9.41
1752,944.55,2152.00,17.11
1753,944.64,2153.00,4.70
1754,944.73,2154.00,29.26
1755,944.82,2155.00,0.00
1756,944.91,2156.00,16.08
1757,945.00,2157.00,43.43
1758,945.09,2158.00,10.24
1759,945.18,2159.00,10.72
1760,945.27,2160.00,9.15
1761,945.36,2161.00,0.59
1762,945.45,2162.00,8.22
1763,945.54,2163.00,9.67
1764,945.63,2164.00,14.92
1765,945.72,2165.00,29.05
1766,945.81,2166.00,50.38
1767,945.89,2167.00,26.07
1768,945.98,2168.00,40.48
1769,946.07,2169.00,11.95
1770,946.16,2170.00,38.80
1771,946.25,2171.00,0.00
1772,946.34,2172.00,19.57
1773,946.43,2173.00,47.95
1774,946.52,2174.00,7.99
1775,946.61,2175.00,6.98
1776,946.70,2176.00,4.02
1777,946.79,2177.00,0.97
1778,946.88,2178.00,2.25
1779,946.97,2179.00,5.64
1780,947.06,2180.00,3.82
1781,947.15,2181.00,10.11
1782,947.24,2182.00,22.49
1783,947.33,2183.00,11.00
1784,947.42,2184.00,15.95
1785,947.51,2185.00,10.44
1786,947.60,2186.00,33.44
1787,947.69,2187.00,0.00
1788,947.78,2188.00,32.69
1789,947.87,2189.00,61.92
1790,947.96,2190.00,25.52
1791,948.05,2191.00,18.01
1792,948.14,2192.00,19.37
1793,948.23,2193.00,15.61
1794,948.32,2194.00,17.58
1795,948.41,2195.00,19.25
1796,948.50,2196.00,12.31
1797,948.59,2197.00,22.58
1798,948.68,2198.00,37.48
1799,948.77,2199.00,16.97
1800,948.86,2200.00,15.60
1801,948.95,2201.00,6.36
1802,949.04,2202.00,23.87
1803,949.13,2203.00,0.00
1804,949.22,2204.00,22.47
1805,949.31,2205.00,57.21
1806,949.40,2206.00,25.33
1807,949.49,2207.00,18.32
1808,949.58,2208.00,20.03
1809,949.67,2209.00,26.27
1810,949.76,2210.00,38.60
1811,949.85,2211.00,24.97
1812,949.94,2212.00,28.60
1813,950.03,2213.00,35.24
1814,950.12,2214.00,59.04
1815,950.21,2215.00,15.44
1816,950.30,2216.00,22.61
1817,950.39,2217.00,4.99
1818,950.48,2218.00,28.51
1819,950.57,2219.00,0.00
1820,950.66,2220.00,21.49
1821,950.75,2221.00,34.05
1822,950.84,2222.00,10.99
1823,950.93,2223.00,5.82
1824,951.02,2224.00,14.47
1825,951.11,2225.00,6.14
1826,951.20,2226.00,13.87
1827,951.29,2227.00,13.56
1828,951.38,2228.00,15.05
1829,951.47,2229.00,9.96
1830,951.57,2230.00,29.26
1831,951.66,2231.00,3.52
1832,951.75,2232.00,13.72
1833,951.84,2233.00,0.00
1834,951.93,2234.00,15.34
1835,952.02,2235.00,0.00
1836,952.11,2236.00,12.40
1837,952.20,2237.00,40.49
1838,952.29,2238.00,10.12
1839,952.38,2239.00,11.70
1840,952.47,2240.00,17.59
1841,952.56,2241.00,6.08
1842,952.65,2242.00,20.84
1843,952.74,2243.00,16.97
1844,952.83,2244.00,16.26
1845,952.93,2245.00,23.63
1846,953.02,2246.00,38.72
1847,953.11,2247.00,14.74
1848,953.20,2248.00,16.52
1849,953.29,2249.00,3.05
1850,953.38,2250.00,21.43
1851,953.47,2251.00,0.00
1852,953.56,2252.00,11.19
1853,953.65,2253.00,36.47
1854,953.74,2254.00,8.38
1855,953.83,2255.00,8.73
1856,953.93,2256.00,11.78
1857,954.02,2257.00,3.32
1858,954.11,2258.00,21.40
1859,954.20,2259.00,13.77
1860,954.29,2260.00,22.14
1861,954.38,2261.00,26.60
1862,954.47,2262.00,47.32
1863,954.56,2263.00,19.86
1864,954.65,2264.00,24.24
1865,954.75,2265.00,9.17
1866,954.84,2266.00,44.45
1867,954.93,2267.00,0.00
1868,955.02,2268.00,22.91
1869,955.11,2269.00,42.64
1870,955.20,2270.00,8.72
1871,955.29,2271.00,8.73
1872,955.38,2272.00,10.38
1873,955.47,2273.00,0.00
1874,955.57,2274.00,4.43
1875,955.66,2275.00,2.49
1876,955.75,2276.00,7.36
1877,955.84,2277.00,5.01
1878,955.93,2278.00,20.77
1879,956.02,2279.00,7.52
1880,956.11,2280.00,16.58
1881,956.21,2281.00,7.22
1882,956.30,2282.00,37.44
1883,956.39,2283.00,0.00
1884,956.48,2284.00,32.45
1885,956.57,2285.00,60.89
1886,956.66,2286.00,15.78
1887,956.75,2287.00,12.68
1888,956.85,2288.00,8.54
1889,956.94,2289.00,2.05
1890,957.03,2290.00,3.03
1891,957.12,2291.00,4.04
1892,957.21,2292.00,5.89
1893,957.30,2293.00,4.81
1894,957.40,2294.00,20.45
1895,957.49,2295.00,7.55
1896,957.58,2296.00,12.28
1897,957.67,2297.00,0.25
1898,957.76,2298.00,21.90
1899,957.85,2299.00,0.00
1900,957.95,2300.00,15.98
1901,958.04,2301.00,40.05
1902,958.13,2302.00,11.78
1903,958.22,2303.00,6.90
1904,958.31,2304.00,11.89
1905,958.41,2305.00,1.81
1906,958.50,2306.00,6.70
1907,958.59,2307.00,3.81
1908,958.68,2308.00,16.46
1909,958.77,2309.00,9.09
1910,958.86,2310.00,38.90
1911,958.96,2311.00,13.74
1912,959.05,2312.00,27.09
1913,959.14,2313.00,0.00
1914,959.23,2314.00,21.59
1915,959.32,2315.00,0.00
1916,959.42,2316.00,11.99
1917,959.51,2317.00,33.62
1918,959.60,2318.00,8.73
1919,959.69,2319.00,6.61
1920,959.79,2320.00,9.02
1921,959.88,2321.00,0.00
1922,959.97,2322.00,1.49
1923,960.06,2323.00,7.78
1924,960.15,2324.00,8.69
1925,960.25,2325.00,9.98
1926,960.34,2326.00,31.20
1927,960.43,2327.00,12.06
1928,960.52,2328.00,20.58
1929,960.61,2329.00,1.69
1930,960.71,2330.00,21.12
1931,960.80,2331.00,0.00
1932,960.89,2332.00,14.83
1933,960.98,2333.00,32.98
1934,961.08,2334.00,4.60
1935,961.17,2335.00,5.66
1936,961.26,2336.00,8.05
1937,961.35,2337.00,1.27
1938,961.45,2338.00,11.25
1939,961.54,2339.00,12.19
1940,961.63,2340.00,19.18
1941,961.72,2341.00,27.03
1942,961.82,2342.00,56.45
1943,961.91,2343.00,24.68
1944,962.00,2344.00,39.66
1945,962.09,2345.00,11.89
1946,962.19,2346.00,30.65
1947,962.28,2347.00,0.00
1948,962.37,2348.00,16.19
1949,962.46,2349.00,30.26
1950,962.56,2350.00,4.08
1951,962.65,2351.00,1.98
1952,962.74,2352.00,2.87
1953,962.83,2353.00,0.00
1954,962.93,2354.00,5.15
1955,963.02,2355.00,1.89
1956,963.11,2356.00,8.47
1957,963.21,2357.00,10.03
1958,963.30,2358.00,32.70
1959,963.39,2359.00,7.45
1960,963.48,2360.00,32.40
1961,963.58,2361.00,0.00
1962,963.67,2362.00,36.05
1963,963.76,2363.00,0.00
1964,963.86,2364.00,16.05
1965,963.95,2365.00,34.73
1966,964.04,2366.00,7.00
1967,964.13,2367.00,0.84
1968,964.23,2368.00,3.20
1969,964.32,2369.00,0.00
1970,964.41,2370.00,0.00
1971,964.51,2371.00,0.40
1972,964.60,2372.00,1.62
1973,964.69,2373.00,0.65
1974,964.79,2374.00,6.56
1975,964.88,2375.00,1.20
1976,964.97,2376.00,4.17
1977,965.06,2377.00,1.66
1978,965.16,2378.00,12.16
1979,965.25,2379.00,0.00
1980,965.34,2380.00,10.56
1981,965.44,2381.00,43.06
1982,965.53,2382.00,11.46
1983,965.62,2383.00,15.13
1984,965.72,2384.00,19.65
1985,965.81,2385.00,12.46
1986,965.90,2386.00,16.79
1987,966.00,2387.00,18.61
1988,966.09,2388.00,21.10
1989,966.18,2389.00,27.38
1990,966.28,2390.00,43.97
1991,966.37,2391.00,25.57
1992,966.46,2392.00,22.55
1993,966.56,2393.00,10.35
1994,966.65,2394.00,25.69
1995,966.74,2395.00,6.69
1996,966.84,2396.00,17.21
1997,966.93,2397.00,48.65
1998,967.02,2398.00,14.03
1999,967.12,2399.00,19.47
2000,967.21,2400.00,14.17
